#Wave		#Intensity
3204.375000	-208.029663
3203.544922	-1285.196045
3202.713867	868.956055
3201.882813	95.444633
3201.051758	305.133636
3200.220703	-526.394409
3199.389648	109.223869
3198.558594	245.945526
3197.726563	298.809784
3196.895508	258.588837
3196.063477	496.822449
3195.231445	491.681000
3194.399414	188.245255
3193.567383	-529.107361
3192.734375	795.484314
3191.902344	2076.129150
3191.069336	994.824646
3190.237305	2165.442383
3189.404297	1926.982056
3188.571289	1532.654907
3187.738281	2423.117920
3186.905273	2234.824707
3186.071289	928.093872
3185.238281	2189.411133
3184.404297	2193.471924
3183.570313	2487.005127
3182.736328	2749.150635
3181.902344	3118.626221
3181.068359	2650.728027
3180.233398	2504.393311
3179.399414	2491.318848
3178.564453	1713.892944
3177.729492	2334.706299
3176.895508	3784.266602
3176.060547	3661.305176
3175.224609	3957.748779
3174.389648	4130.575195
3173.554688	4728.206055
3172.718750	3189.366455
3171.882813	3863.773438
3171.046875	2684.813965
3170.210938	4032.546875
3169.375000	5196.295898
3168.539063	4274.041504
3167.702148	5059.086914
3166.866211	4801.747559
3166.029297	4816.459473
3165.192383	4567.237793
3164.355469	3351.578369
3163.518555	3559.725098
3162.681641	4232.406738
3161.843750	3130.269531
3161.006836	4999.361328
3160.168945	4345.789063
3159.331055	3684.989258
3158.493164	4279.751953
3157.655273	4631.101563
3156.817383	4894.483887
3155.979492	5222.330078
3155.140625	4758.158691
3154.302734	4712.079102
3153.463867	4009.447510
3152.625000	5107.041992
3151.786133	4967.557617
3150.947266	4892.720215
3150.107422	3840.240967
3149.268555	4328.436035
3148.428711	4289.874512
3147.588867	4301.625000
3146.749023	4550.256348
3145.909180	5179.102539
3145.069336	4592.888672
3144.229492	5089.886719
3143.388672	4805.480469
3142.548828	4462.463867
3141.708008	4356.425781
3140.867188	3888.039795
3140.026367	6588.654785
3139.185547	4429.807129
3138.344727	4571.329102
3137.502930	4339.406738
3136.662109	4636.227051
3135.820313	4493.827637
3134.978516	4865.843750
3134.136719	4180.248047
3133.294922	4959.465820
3132.453125	5494.156250
3131.611328	4900.214355
3130.768555	4528.783203
3129.925781	5160.629395
3129.083984	5190.570313
3128.241211	4613.433594
3127.397461	3766.937500
3126.554688	3957.466309
3125.711914	4675.878906
3124.868164	5218.981934
3124.025391	5198.072754
3123.181641	4339.355957
3122.337891	5276.887207
3121.494141	4531.121582
3120.650391	4704.325195
3119.805664	4534.221191
3118.961914	4229.179199
3118.117188	3469.782227
3117.272461	4028.388184
3116.428711	4688.747559
3115.583008	4358.484863
3114.738281	4466.851074
3113.893555	3679.049561
3113.047852	3233.154297
3112.203125	4688.312500
3111.357422	4560.468750
3110.511719	3947.563477
3109.666016	3499.580811
3108.820313	3683.707031
3107.974609	4192.004395
3107.127930	2768.603516
3106.282227	3871.034912
3105.435547	4178.311523
3104.588867	3494.314697
3103.742188	3029.246338
3102.895508	3855.932861
3102.048828	3168.137695
3101.201172	3308.112305
3100.354492	3581.253418
3099.506836	3802.799805
3098.659180	3250.416992
3097.811523	3149.915283
3096.963867	3051.916748
3096.116211	3405.543457
3095.267578	3181.918213
3094.419922	2818.723877
3093.571289	2640.098633
3092.722656	1643.178955
3091.874023	2120.242920
3091.025391	2156.771240
3090.176758	1877.885132
3089.328125	1854.315186
3088.478516	2406.727295
3087.628906	1483.149780
3086.780273	1436.284424
3085.930664	2478.622070
3085.081055	1611.597900
3084.230469	310.876007
3083.380859	1811.676758
3082.530273	2098.566650
3081.680664	1852.266846
3080.830078	1450.108276
3079.979492	1113.120972
3079.128906	1147.252563
3078.278320	436.294586
3077.426758	957.533936
3076.576172	762.036316
3075.724609	1784.021362
3074.873047	747.628174
3074.022461	1211.512085
3073.169922	676.402405
3072.318359	950.557434
3071.466797	831.388062
3070.614258	780.179504
3069.762695	513.966736
3068.910156	971.779846
3068.057617	428.648346
3067.205078	1516.706055
3066.352539	976.539978
3065.500000	-334.872803
3064.646484	577.783813
3063.793945	620.059448
3062.940430	637.030579
3062.086914	179.647842
3061.233398	179.888123
3060.379883	137.868759
3059.525391	5.702344
3058.671875	220.734146
3057.817383	1203.353271
3056.963867	938.732605
3056.109375	0.230122
3055.254883	486.404602
3054.399414	-231.443726
3053.544922	669.340881
3052.690430	-876.847839
3051.834961	-37.865784
3050.979492	181.032150
3050.125000	-33.941063
3049.268555	-293.584747
3048.413086	444.054413
3047.557617	105.854889
3046.702148	97.401230
3045.845703	-1253.661621
3044.989258	801.893860
3044.132813	419.730042
3043.276367	-589.584412
3042.419922	-34.059189
3041.563477	68.639786
3040.707031	756.549561
3039.849609	-481.730652
3038.992188	-892.741272
3038.134766	99.445206
3037.277344	-302.556396
3036.419922	-979.568848
3035.562500	2038.850830
3034.705078	-314.964203
3033.846680	298.571167
3032.988281	507.789063
3032.129883	919.413147
3031.271484	331.698364
3030.413086	533.290222
3029.554688	235.537109
3028.696289	757.615662
3027.836914	875.909546
3026.977539	1255.373047
3026.119141	1043.146240
3025.259766	208.821167
3024.399414	6.074883
3023.540039	1320.354126
3022.680664	378.105530
3021.820313	1126.574341
3020.959961	1359.555664
3020.100586	1550.701904
3019.240234	1826.281616
3018.378906	1368.440308
3017.518555	815.806274
3016.658203	1744.859741
3015.796875	1666.301270
3014.936523	2357.771973
3014.075195	2033.638306
3013.213867	1379.831787
3012.352539	1440.012085
3011.490234	2485.271973
3010.628906	1547.654175
3009.766602	2215.873291
3008.905273	2277.501221
3008.042969	1945.472656
3007.180664	2103.074951
3006.318359	3647.092285
3005.455078	3274.448242
3004.592773	2921.803955
3003.730469	3005.426270
3002.867188	3176.115479
3002.003906	3612.436523
3001.140625	4573.908203
3000.277344	3595.563232
2999.414063	3245.904297
2998.549805	3965.624268
2997.686523	4610.125977
2996.822266	3143.340332
2995.958008	4095.562500
2995.093750	3461.216797
2994.229492	4216.039551
2993.365234	4695.080078
2992.500000	5166.173340
2991.635742	4924.060059
2990.770508	4130.895508
2989.905273	4606.019043
2989.040039	5045.259766
2988.174805	4117.400879
2987.309570	5334.381348
2986.443359	6117.243652
2985.578125	5032.423340
2984.711914	5649.035645
2983.845703	4966.399902
2982.979492	5372.346191
2982.113281	6518.593262
2981.247070	6666.439941
2980.380859	7231.856445
2979.513672	5845.810059
2978.646484	6150.929688
2977.779297	6948.435059
2976.912109	7026.390137
2976.044922	6490.701172
2975.177734	6572.463379
2974.310547	7051.895996
2973.442383	7237.392090
2972.574219	7084.545410
2971.706055	6315.872070
2970.837891	6699.966309
2969.969727	7625.672852
2969.101563	7374.944824
2968.233398	6622.579590
2967.364258	7904.551758
2966.495117	7086.889160
2965.625977	7398.716309
2964.756836	8257.205078
2963.887695	8273.106445
2963.018555	7313.779785
2962.149414	8187.209473
2961.279297	9351.951172
2960.409180	7884.763672
2959.539063	8352.098633
2958.668945	8296.316406
2957.798828	8495.838867
2956.928711	8501.977539
2956.057617	8965.526367
2955.187500	7898.647949
2954.316406	9052.243164
2953.445313	7809.736328
2952.574219	9094.001953
2951.703125	9235.961914
2950.832031	8733.975586
2949.959961	8337.871094
2949.088867	8622.395508
2948.216797	8824.521484
2947.344727	8181.355957
2946.472656	8588.992188
2945.600586	8195.742188
2944.728516	9024.166992
2943.855469	7927.771484
2942.982422	9019.457031
2942.110352	8429.593750
2941.237305	9231.970703
2940.364258	8008.520508
2939.491211	8833.789063
2938.617188	8470.112305
2937.744141	8782.863281
2936.870117	7774.823730
2935.996094	8965.782227
2935.122070	8074.845703
2934.248047	8210.373047
2933.374023	8520.004883
2932.500000	8733.583008
2931.625000	8043.805664
2930.750977	8412.664063
2929.875977	8319.212891
2929.000977	8609.157227
2928.125977	8502.917969
2927.250977	8276.041016
2926.375000	8206.790039
2925.500000	8801.321289
2924.624023	7830.242188
2923.748047	7715.786133
2922.872070	7753.171387
2921.996094	7067.536133
2921.120117	7774.348633
2920.244141	8200.903320
2919.367188	7728.827637
2918.490234	8238.835938
2917.614258	8342.204102
2916.737305	7173.704590
2915.860352	6742.471680
2914.982422	6847.744141
2914.105469	7857.041016
2913.227539	8490.373047
2912.350586	8159.942383
2911.472656	7517.263184
2910.594727	7223.873047
2909.716797	6291.536133
2908.837891	7374.384766
2907.959961	6681.961426
2907.081055	7052.048828
2906.203125	7279.687988
2905.324219	7241.851074
2904.445313	5797.822754
2903.566406	5412.960449
2902.686523	6462.446289
2901.807617	6785.598145
2900.927734	6920.189453
2900.048828	6161.832031
2899.168945	5344.067383
2898.289063	5359.629395
2897.409180	5071.672363
2896.528320	5841.272949
2895.648438	6082.569824
2894.767578	5229.498535
2893.886719	5250.166504
2893.006836	5479.054688
2892.125000	5038.337402
2891.244141	5681.242188
2890.363281	4954.159180
2889.481445	4670.885742
2888.600586	4885.570313
2887.718750	4857.467773
2886.836914	4075.447266
2885.955078	5340.913086
2885.073242	4712.893555
2884.190430	4692.143066
2883.308594	3740.226074
2882.425781	5077.729980
2881.542969	3998.709229
2880.661133	2800.169922
2879.777344	3125.866211
2878.894531	4136.710938
2878.011719	3504.944092
2877.127930	3318.633789
2876.245117	3290.854736
2875.361328	4957.340820
2874.477539	3070.456299
2873.593750	3142.198242
2872.708984	2380.294189
2871.825195	2466.532715
2870.940430	2962.073975
2870.056641	3430.408447
2869.171875	2547.885010
2868.287109	2570.349365
2867.402344	4186.376953
2866.516602	2578.400635
2865.631836	2362.375488
2864.746094	1746.795166
2863.861328	2046.098022
2862.975586	2661.481689
2862.089844	2052.679932
2861.204102	2810.049072
2860.317383	1990.149658
2859.431641	2655.525391
2858.544922	1912.737549
2857.658203	1980.689209
2856.771484	2195.737061
2855.884766	2074.066162
2854.998047	1365.845825
2854.111328	2032.901245
2853.223633	1888.045410
2852.336914	1460.942017
2851.449219	1821.985107
2850.561523	1737.950439
2849.673828	1708.569702
2848.786133	748.559021
2847.897461	451.498474
2847.009766	2043.141968
2846.121094	680.449524
2845.232422	631.320129
2844.343750	1420.532227
2843.455078	1013.989502
2842.566406	282.564178
2841.676758	522.260254
2840.788086	734.905579
2839.898438	116.058083
2839.008789	887.583313
2838.119141	502.462891
2837.229492	217.975357
2836.339844	388.805481
2835.449219	1180.068481
2834.559570	685.291626
2833.668945	453.692688
2832.778320	739.338440
2831.887695	-141.039444
2830.997070	475.212494
2830.105469	-428.476471
2829.214844	861.574036
2828.323242	-844.446411
2827.432617	-240.936508
2826.541016	114.106789
2825.649414	-17.189249
2824.756836	384.355988
2823.865234	423.779480
2822.972656	215.086029
2822.081055	33.530499
2821.188477	-579.631409
2820.295898	-152.805099
2819.403320	-549.274475
2818.510742	-764.542358
2817.617188	442.948517
2816.724609	-581.455688
2815.831055	-102.356270
2814.937500	-378.503510
2814.043945	241.084229
2813.150391	-393.236481
2812.256836	-250.624649
2811.362305	-272.115387
2810.467773	596.086853
2809.574219	-390.066681
2808.679688	286.966278
2807.785156	-43.565994
2806.890625	-554.260010
2805.995117	10.146901
2805.100586	-203.800629
2804.205078	-444.230469
2803.309570	77.385979
2802.414063	-143.782120
2801.518555	-448.128143
2800.623047	886.329529
2799.727539	-601.333679
2798.831055	-573.900757
2797.934570	397.593567
2797.039063	-421.932831
2796.142578	724.301025
2795.245117	392.199036
2794.348633	605.724243
2793.452148	623.203552
2792.554688	345.479797
2791.657227	239.923706
2790.760742	252.546021
2789.863281	-37.948692
2788.964844	-3.140919
2788.067383	504.071442
2787.169922	1537.312988
2786.271484	445.208557
2785.373047	1218.331299
2784.474609	878.037720
2783.576172	1460.669067
2782.677734	578.988281
2781.779297	949.898926
2780.879883	819.698364
2779.980469	1764.505981
2779.082031	-338.262390
2778.182617	1032.740967
2777.282227	884.513672
2776.382813	1237.155518
2775.483398	2125.479980
2774.583008	834.019043
2773.682617	1433.344849
2772.783203	1352.419922
2771.882813	2478.951904
2770.981445	2055.923096
2770.081055	1881.776001
2769.180664	2004.730957
2768.279297	2093.164063
2767.377930	2868.959717
2766.476563	3101.771484
2765.575195	2738.393799
2764.673828	2503.526855
2763.772461	2934.293701
2762.870117	2683.773438
2761.967773	2973.116211
2761.066406	3719.033936
2760.164063	2568.610107
2759.261719	2609.666992
2758.358398	3310.455566
2757.456055	3031.152832
2756.552734	3683.717529
2755.650391	3009.561035
2754.747070	4043.595215
2753.843750	3199.157471
2752.940430	4200.901367
2752.036133	3450.343994
2751.132813	4438.475098
2750.228516	5250.549805
2749.324219	3311.390625
2748.419922	4232.729004
2747.515625	4309.062500
2746.611328	3817.857422
2745.707031	4933.236328
2744.801758	4399.716797
2743.897461	4598.569336
2742.992188	5199.627930
2742.086914	4546.589355
2741.181641	5168.794434
2740.275391	5527.510742
2739.370117	4981.212891
2738.463867	5270.702148
2737.558594	6275.469727
2736.652344	6208.270020
2735.746094	4627.972168
2734.839844	5560.761719
2733.932617	6123.920410
2733.026367	5469.376953
2732.119141	5888.838867
2731.211914	6071.691406
2730.304688	6432.447266
2729.397461	5903.261230
2728.490234	6322.333984
2727.583008	5918.084961
2726.674805	6536.295898
2725.767578	6503.724609
2724.859375	5667.156250
2723.951172	6043.538086
2723.042969	6398.540039
2722.133789	6886.225586
2721.225586	6368.290039
2720.316406	5993.876465
2719.407227	6507.777832
2718.499023	6777.395996
2717.588867	6119.546875
2716.679688	7012.035645
2715.770508	6277.236816
2714.860352	7593.368164
2713.951172	7261.253418
2713.041016	6770.455566
2712.130859	7317.783203
2711.220703	6752.891113
2710.310547	7014.042480
2709.399414	7285.813965
2708.489258	6948.593262
2707.578125	8103.878906
2706.666992	6454.543945
2705.755859	6847.632813
2704.844727	7229.940430
2703.933594	6390.448730
2703.021484	7795.844238
2702.109375	7017.358398
2701.198242	7473.067871
2700.286133	6774.001953
2699.374023	7647.048828
2698.460938	7862.174805
2697.548828	7221.223145
2696.635742	7314.690430
2695.723633	7648.107422
2694.810547	7355.861816
2693.897461	6129.279785
2692.984375	6597.203613
2692.071289	7637.459473
2691.157227	6930.997070
2690.243164	7211.175293
2689.330078	8039.510254
2688.416016	6953.324219
2687.501953	7277.851074
2686.587891	6579.402832
2685.672852	6221.223145
2684.758789	8355.692383
2683.843750	8047.177734
2682.928711	7056.366699
2682.013672	7361.602051
2681.098633	7524.413574
2680.183594	6633.846191
2679.267578	7912.862793
2678.352539	7088.079590
2677.436523	7755.782227
2676.520508	7249.583496
2675.604492	7288.012695
2674.688477	6708.146484
2673.772461	7167.170898
2672.855469	7189.578125
2671.938477	7033.060059
2671.022461	6476.698730
2670.105469	6737.964844
2669.187500	7204.138184
2668.270508	7304.619629
2667.353516	7890.918457
2666.435547	7103.368164
2665.517578	6439.333984
2664.600586	6310.837891
2663.682617	6597.207031
2662.763672	6516.017090
2661.845703	7849.079590
2660.927734	6581.166016
2660.008789	7184.282715
2659.089844	7170.607422
2658.170898	6548.295898
2657.251953	6938.236328
2656.333008	6664.537598
2655.413086	6448.609863
2654.494141	7136.659180
2653.574219	6018.897461
2652.654297	6963.396973
2651.734375	6293.640137
2650.814453	6414.969238
2649.894531	6790.117676
2648.973633	6887.572266
2648.053711	6955.838867
2647.132813	6196.909180
2646.211914	6675.979980
2645.291016	6100.144531
2644.370117	5406.588867
2643.448242	6643.767090
2642.527344	6624.750977
2641.605469	5703.543945
2640.683594	5880.564453
2639.761719	6363.201660
2638.839844	5883.625977
2637.917969	5273.336914
2636.995117	6092.489746
2636.072266	5853.113281
2635.150391	5070.144043
2634.227539	5365.987305
2633.304688	6541.517090
2632.380859	5784.652832
2631.458008	5575.832520
2630.534180	5539.287598
2629.611328	5369.300293
2628.687500	6036.851074
2627.763672	5141.377930
2626.839844	4342.489258
2625.915039	6532.368652
2624.991211	5438.441406
2624.066406	5199.920898
2623.141602	5310.526367
2622.216797	4844.944824
2621.291992	4019.691162
2620.367188	5437.623047
2619.442383	5276.349609
2618.516602	4378.005371
2617.590820	4357.280762
2616.665039	4023.925293
2615.739258	5335.625488
2614.813477	4965.302734
2613.887695	4784.861328
2612.960938	4302.591309
2612.035156	3890.317139
2611.108398	3496.321533
2610.181641	3913.609863
2609.254883	4184.915527
2608.328125	3610.988281
2607.400391	4357.615234
2606.473633	4123.827637
2605.545898	4417.530273
2604.618164	3456.042236
2603.690430	3783.035156
2602.762695	3395.476807
2601.834961	2802.632080
2600.906250	3788.505615
2599.977539	3076.059082
2599.049805	3495.084473
2598.121094	2699.403076
2597.191406	3087.044189
2596.262695	2918.999023
2595.333984	3388.833740
2594.404297	3469.409912
2593.474609	2582.535645
2592.545898	1747.395630
2591.615234	3421.777588
2590.685547	2765.251465
2589.755859	2388.553711
2588.825195	2882.403809
2587.895508	3308.329102
2586.964844	2120.441162
2586.034180	2535.643799
2585.103516	2181.483643
2584.171875	1537.381592
2583.241211	2407.243652
2582.309570	1535.068237
2581.378906	2163.497070
2580.447266	1761.964966
2579.515625	2338.065918
2578.583008	1325.922485
2577.651367	1940.147339
2576.719727	1165.581909
2575.787109	1841.300659
2574.854492	1247.540161
2573.921875	1209.299805
2572.989258	1413.657227
2572.055664	1227.763794
2571.123047	1754.377808
2570.189453	1818.458130
2569.256836	1104.904907
2568.323242	869.066650
2567.389648	609.791748
2566.455078	520.823364
2565.521484	289.548645
2564.586914	1134.032227
2563.653320	290.849976
2562.718750	933.362122
2561.784180	482.044098
2560.849609	159.504974
2559.914063	945.391907
2558.979492	-772.012634
2558.043945	781.163879
2557.108398	153.804810
2556.172852	412.550537
2555.237305	518.978943
2554.301758	455.136536
2553.365234	293.324554
2552.429688	671.783264
2551.493164	671.599304
2550.556641	624.814758
2549.620117	-562.148682
2548.683594	1070.724365
2547.746094	426.420624
2546.809570	54.528145
2545.872070	515.785950
2544.934570	-20.965044
2543.997070	-341.896820
2543.059570	-755.525146
2542.122070	7.665350
2541.183594	-133.950195
2540.246094	-150.075851
2539.307617	573.413330
2538.369141	-15.936069
2537.430664	799.157043
2536.492188	-247.588699
2535.552734	410.277954
2534.614258	-30.942991
2533.674805	120.588226
2532.735352	523.217041
2531.795898	114.818459
2530.856445	444.939209
2529.916016	161.903595
2528.976563	773.359497
2528.036133	-38.279293
2527.095703	467.475464
2526.155273	534.576843
2525.214844	32.540497
2524.274414	319.428864
2523.333984	37.288853
2522.392578	121.317055
2521.451172	822.144348
2520.509766	431.817657
2519.568359	376.649445
2518.626953	-152.266418
2517.684570	460.108734
2516.743164	-7.818306
2515.800781	71.685738
2514.858398	882.363525
2513.916016	37.933926
2512.973633	-80.353020
2512.031250	212.690308
2511.087891	295.881531
2510.145508	396.522858
2509.202148	461.186615
2508.258789	-16.053934
2507.315430	339.270050
2506.371094	597.271423
2505.427734	37.662086
2504.483398	652.479736
2503.539063	281.486908
2502.595703	1219.478516
2501.650391	439.773346
2500.706055	851.396790
2499.761719	747.304077
2498.816406	717.043091
2497.871094	520.753174
2496.926758	856.997131
2495.981445	1279.634888
2495.035156	1143.774902
2494.089844	502.934174
2493.144531	-43.715546
2492.198242	89.886765
2491.251953	1165.633057
2490.305664	636.226563
2489.359375	526.870789
2488.413086	921.362854
2487.465820	302.418427
2486.518555	762.540466
2485.572266	748.764526
2484.625000	1332.755005
2483.677734	1112.390991
2482.729492	670.636536
2481.782227	485.470337
2480.833984	366.304199
2479.886719	915.383850
2478.938477	-167.755112
2477.990234	124.096367
2477.041992	613.751160
2476.092773	973.514771
2475.144531	115.995628
2474.195313	337.991608
2473.246094	1169.072876
2472.296875	1072.880493
2471.347656	275.805481
2470.398438	762.988770
2469.448242	409.858551
2468.499023	89.418686
2467.548828	53.056118
2466.598633	-87.594070
2465.648438	121.499771
2464.697266	-166.626358
2463.747070	-64.637283
2462.795898	-31.305487
2461.845703	901.330505
2460.894531	-181.018631
2459.943359	631.800049
2458.991211	258.679932
2458.040039	1341.585327
2457.088867	1712.284790
2456.136719	378.733459
2455.184570	-304.085907
2454.232422	78.608414
2453.280273	281.223145
2452.327148	-161.600479
2451.375000	257.981201
2450.421875	-428.093872
2449.468750	-800.622253
2448.515625	391.865387
2447.562500	-234.068024
2446.609375	522.609314
2445.655273	-672.229187
2444.702148	-929.594727
2443.748047	493.086761
2442.793945	-259.947632
2441.839844	2.318172
2440.885742	-485.802734
2439.930664	78.936150
2438.976563	-13.238146
2438.021484	-269.630310
2437.066406	-357.126373
2436.111328	-813.257019
2435.156250	-600.990479
2434.200195	-948.925781
2433.245117	-664.113342
2432.289063	-629.189819
2431.333008	-481.117371
2430.376953	-711.473572
2429.420898	56.007824
2428.464844	-109.391388
2427.507813	-866.975525
2426.551758	-392.868805
2425.594727	-803.149536
2424.637695	-4.793465
2423.680664	-27.799929
2422.722656	-53.474808
2421.765625	-205.376709
2420.807617	-312.087006
2419.849609	-300.782990
2418.892578	761.749939
2417.933594	-324.270050
2416.975586	309.940125
2416.017578	71.120285
2415.058594	-363.897186
2414.099609	-675.850220
2413.140625	-623.550598
2412.181641	-727.341553
2411.222656	-173.097336
2410.263672	44.104572
2409.304688	-492.547668
2408.343750	244.105911
2407.384766	-16.721943
2406.423828	445.443665
2405.464844	728.802246
2404.503906	-679.470520
2403.542969	-77.688271
2402.582031	-299.240997
2401.621094	-347.909241
2400.660156	-128.473557
2399.699219	-207.761368
2398.738281	-435.209473
2397.777344	663.214050
2396.816406	883.806824
2395.853516	-497.013153
2394.892578	16.325863
2393.929688	203.768036
2392.968750	52.574898
2392.005859	189.344574
2391.042969	814.067871
2390.080078	236.682999
2389.117188	520.268799
2388.154297	438.138550
2387.191406	55.496052
2386.228516	-354.782959
2385.263672	290.588379
2384.300781	572.678650
2383.337891	436.822113
2382.373047	475.944580
2381.408203	227.339386
2380.445313	1340.536499
2379.480469	761.509949
2378.515625	12.523694
2377.550781	822.359619
2376.585938	277.940369
2375.621094	882.188599
2374.656250	172.636322
2373.691406	511.596771
2372.724609	728.068420
2371.759766	-106.615814
2370.792969	773.117859
2369.828125	1475.026489
2368.861328	98.775223
2367.894531	1151.915283
2366.927734	1002.525513
2365.962891	361.643951
2364.996094	725.478638
2364.027344	368.825500
2363.060547	1080.933472
2362.093750	653.937439
2361.126953	515.806885
2360.158203	967.970764
2359.191406	490.682312
2358.222656	800.282654
2357.255859	402.386322
2356.287109	624.316833
2355.318359	17.210293
2354.349609	489.989288
2353.380859	1051.935913
2352.412109	307.550934
2351.443359	739.553955
2350.474609	1017.023804
2349.505859	235.023834
2348.535156	822.914490
2347.566406	619.851807
2346.595703	543.508423
2345.626953	397.261200
2344.656250	914.265137
2343.685547	1008.615601
2342.714844	563.828979
2341.744141	1238.781128
2340.773438	1126.316528
2339.802734	236.732956
2338.832031	531.031128
2337.861328	241.899460
2336.888672	228.161118
2335.917969	1010.327820
2334.945313	636.404175
2333.974609	906.981934
2333.001953	455.907501
2332.029297	577.391418
2331.056641	678.794006
2330.085938	482.437500
2329.113281	-744.663574
2328.138672	493.490143
2327.166016	536.997131
2326.193359	-197.323242
2325.220703	378.233063
2324.246094	-34.266937
2323.273438	290.638367
2322.298828	375.300568
2321.324219	-750.267578
2320.351563	-737.762573
2319.376953	-99.499504
2318.402344	847.496582
2317.427734	-978.062561
2316.453125	210.651993
2315.478516	-225.343246
2314.503906	870.999390
2313.527344	-711.875244
2312.552734	717.324890
2311.576172	70.878792
2310.601563	133.174011
2309.625000	-367.668365
2308.648438	-616.700012
2307.673828	168.427429
2306.697266	-253.800278
2305.720703	-616.847656
2304.744141	-824.526367
2303.767578	-385.944916
2302.789063	-529.718018
2301.812500	-1009.192383
2300.835938	-482.615173
2299.857422	-52.422482
2298.880859	-39.302383
2297.902344	-745.948853
2296.923828	-636.869324
2295.945313	-313.656769
2294.968750	-111.589951
2293.990234	-717.538086
2293.011719	-138.928802
2292.031250	-205.686066
2291.052734	-496.772430
2290.074219	-450.736450
2289.095703	109.469597
2288.115234	-51.540794
2287.136719	-567.101929
2286.156250	-187.152145
2285.175781	-304.326691
2284.195313	569.351807
2283.216797	163.929764
2282.236328	-499.526550
2281.255859	-447.713318
2280.273438	-555.715515
2279.292969	166.498276
2278.312500	-647.101868
2277.332031	-394.616638
2276.349609	439.765747
2275.369141	217.743958
2274.386719	-424.075104
2273.404297	519.826477
2272.423828	-63.399101
2271.441406	219.704346
2270.458984	-427.297272
2269.476563	164.495270
2268.494141	10.340642
2267.509766	273.055054
2266.527344	322.086212
2265.544922	-533.632080
2264.560547	-276.378510
2263.578125	487.773529
2262.593750	514.124878
2261.611328	-829.247986
2260.626953	-11.881605
2259.642578	156.067551
2258.658203	54.459641
2257.673828	493.756409
2256.689453	249.825836
2255.705078	309.278107
2254.718750	185.143448
2253.734375	635.707153
2252.750000	-726.632935
2251.763672	115.050713
2250.779297	-669.977844
2249.792969	-474.372406
2248.806641	410.370758
2247.820313	385.439911
2246.833984	1066.601440
2245.847656	721.184326
2244.861328	478.322144
2243.875000	-216.484375
2242.888672	-234.750015
2241.900391	-314.089661
2240.914063	-171.513748
2239.925781	5.145299
2238.939453	679.354919
2237.951172	494.375183
2236.962891	321.502808
2235.976563	226.481232
2234.988281	389.982544
2234.000000	1075.116943
2233.011719	97.088486
2232.021484	413.763275
2231.033203	803.199890
2230.044922	588.007141
2229.054688	660.347168
2228.066406	-171.375839
2227.076172	663.153564
2226.087891	84.684647
2225.097656	-179.530975
2224.107422	293.854523
2223.117188	277.685669
2222.126953	-47.700851
2221.136719	602.641052
2220.146484	739.274536
2219.154297	146.085373
2218.164063	90.335434
2217.173828	-28.753407
2216.181641	926.797302
2215.191406	505.899811
2214.199219	68.095924
2213.207031	-428.021057
2212.214844	203.276230
2211.222656	-13.605249
2210.230469	73.069618
2209.238281	424.293762
2208.246094	-273.682068
2207.253906	103.924095
2206.259766	915.853455
2205.267578	125.531807
2204.273438	347.292053
2203.281250	333.420502
2202.287109	377.741150
2201.292969	-509.399261
2200.300781	-676.277893
2199.306641	126.677704
2198.312500	143.830643
2197.318359	-3.966743
2196.322266	-294.710419
2195.328125	-389.328461
2194.333984	-144.886902
2193.337891	43.742535
2192.343750	-499.265076
2191.347656	117.681694
2190.351563	204.127914
2189.357422	26.494677
2188.361328	-78.495323
2187.365234	302.781860
2186.369141	224.155075
2185.373047	-132.742172
2184.376953	-729.081055
2183.378906	-599.798462
2182.382813	-1505.557861
2181.384766	177.914551
2180.388672	-469.293823
2179.390625	369.847656
2178.394531	614.146179
2177.396484	-252.892029
2176.398438	92.742538
2175.400391	58.995880
2174.402344	-81.084450
2173.404297	461.978790
2172.406250	44.076920
2171.406250	55.871723
2170.408203	-381.349213
2169.408203	-193.591354
2168.410156	227.886963
2167.410156	10.094956
2166.412109	428.775208
2165.412109	275.904755
2164.412109	229.042862
2163.412109	355.627686
2162.412109	450.737976
2161.412109	617.991638
2160.412109	414.108032
2159.410156	569.160278
2158.410156	589.105469
2157.408203	113.034302
2156.408203	469.881256
2155.406250	504.064240
2154.404297	275.816589
2153.404297	-311.065033
2152.402344	59.750065
2151.400391	411.089569
2150.398438	755.008850
2149.396484	-57.897755
2148.392578	345.987396
2147.390625	-46.108261
2146.388672	972.636169
2145.384766	1846.853394
2144.382813	1156.498413
2143.378906	502.398407
2142.375000	929.242126
2141.371094	575.381836
2140.367188	1001.888489
2139.363281	427.098602
2138.359375	454.872162
2137.355469	820.920776
2136.351563	625.284119
2135.347656	1199.728394
2134.341797	814.509033
2133.337891	1813.046631
2132.332031	1463.647949
2131.326172	908.090027
2130.322266	968.603882
2129.316406	1604.300049
2128.310547	528.745056
2127.304688	900.580200
2126.298828	682.923279
2125.292969	826.907654
2124.285156	1140.872925
2123.279297	1227.110229
2122.271484	1483.290283
2121.265625	1136.048706
2120.257813	855.938049
2119.251953	1609.415161
2118.244141	1111.453613
2117.236328	1271.356689
2116.228516	957.609070
2115.220703	1177.109863
2114.212891	868.101929
2113.205078	676.249817
2112.195313	1194.281616
2111.187500	1410.906738
2110.179688	1099.376953
2109.169922	983.826111
2108.160156	999.605469
2107.152344	1433.129639
2106.142578	732.407288
2105.132813	320.688782
2104.123047	973.552795
2103.113281	869.640564
2102.103516	997.132263
2101.093750	823.919067
2100.082031	1313.875610
2099.072266	868.652649
2098.060547	611.967407
2097.050781	1602.072876
2096.039063	427.505859
2095.027344	1174.166748
2094.017578	1400.971924
2093.005859	-116.261345
2091.994141	-253.835419
2090.982422	1225.734619
2089.968750	797.415527
2088.957031	523.853333
2087.945313	1378.679077
2086.931641	659.984009
2085.919922	505.376038
2084.906250	943.279358
2083.894531	543.521057
2082.880859	8.337411
2081.867188	-797.846069
2080.853516	1071.150879
2079.839844	146.070892
2078.826172	38.914577
2077.812500	521.119934
2076.796875	442.409790
2075.783203	42.855534
2074.769531	1372.672241
2073.753906	44.426327
2072.738281	694.622498
2071.724609	712.930176
2070.708984	427.395081
2069.693359	1031.944214
2068.677734	172.062622
2067.662109	441.797546
2066.646484	-88.061424
2065.630859	-273.880920
2064.613281	19.419752
2063.597656	551.977417
2062.580078	674.257568
2061.564453	11.795954
2060.546875	318.870117
2059.529297	315.377136
2058.511719	420.825317
2057.496094	220.541931
2056.478516	174.295868
2055.458984	561.423218
2054.441406	337.469055
2053.423828	212.958511
2052.406250	225.720184
2051.386719	356.817749
2050.369141	26.390839
2049.349609	498.034943
2048.330078	501.163940
2047.312500	253.504639
2046.292969	261.308075
2045.273438	446.371307
2044.253906	844.054138
2043.234375	279.724274
2042.212891	-0.852437
2041.193359	925.777954
2040.173828	900.139282
2039.152344	411.637634
2038.132813	702.422974
2037.111328	983.697754
2036.089844	726.642578
2035.068359	693.843872
2034.048828	899.271851
2033.027344	1260.386108
2032.005859	682.476929
2030.982422	1126.051392
2029.960938	1335.909302
2028.939453	1689.487427
2027.916016	1331.050293
2026.894531	1429.874878
2025.871094	1750.231689
2024.849609	739.109070
2023.826172	833.238342
2022.802734	1673.973145
2021.779297	1193.220337
2020.755859	1388.370850
2019.732422	1783.542358
2018.708984	1816.055542
2017.683594	1274.330566
2016.660156	1196.255249
2015.634766	1713.473511
2014.611328	1256.561279
2013.585938	1413.693481
2012.562500	1587.133667
2011.537109	1476.064331
2010.511719	1320.340210
2009.486328	1430.227295
2008.460938	2263.843262
2007.435547	1548.774414
2006.408203	2330.424561
2005.382813	1131.666992
2004.357422	1525.515259
2003.330078	1550.638062
2002.302734	1747.093750
2001.277344	2201.597168
2000.250000	1017.868469
1999.222656	2303.013184
1998.195313	1682.671997
1997.167969	1960.923828
1996.140625	1521.386108
1995.113281	1525.168701
1994.085938	1252.264160
1993.056641	1312.372192
1992.029297	1395.805664
1991.000000	982.455505
1989.970703	1487.677612
1988.943359	1828.656372
1987.914063	1541.860474
1986.884766	1428.434937
1985.855469	1895.700684
1984.826172	1445.103271
1983.796875	1731.940063
1982.767578	1468.703735
1981.736328	1701.655762
1980.707031	376.344543
1979.675781	1437.409912
1978.646484	687.869324
1977.615234	1683.026367
1976.583984	1525.229736
1975.552734	1552.136230
1974.521484	1642.121216
1973.490234	1173.567871
1972.458984	1702.796997
1971.427734	1395.551270
1970.396484	1235.526123
1969.363281	769.701599
1968.332031	852.634827
1967.298828	767.519348
1966.267578	343.912567
1965.234375	1003.320313
1964.201172	425.857391
1963.167969	1078.024292
1962.134766	619.672913
1961.101563	732.842773
1960.068359	281.682739
1959.035156	-262.595886
1958.000000	645.564331
1956.966797	-558.169006
1955.931641	328.748169
1954.898438	467.428833
1953.863281	482.659271
1952.828125	721.460938
1951.792969	398.974945
1950.757813	-372.759277
1949.722656	87.196136
1948.687500	55.896301
1947.652344	-14.955262
1946.615234	391.245514
1945.580078	-37.903641
1944.542969	0.664354
1943.507813	-88.757370
1942.470703	-145.539307
1941.433594	53.434059
1940.398438	342.918976
1939.361328	-404.142731
1938.324219	-221.502609
1937.287109	-392.058716
1936.248047	-35.207188
1935.210938	-112.842094
1934.173828	71.952950
1933.134766	-284.218231
1932.097656	-317.663666
1931.058594	-165.355820
1930.019531	167.906967
1928.980469	-382.929596
1927.941406	80.173943
1926.902344	130.264847
1925.863281	-292.734589
1924.824219	193.316605
1923.785156	-141.456146
1922.746094	-684.708679
1921.705078	-71.306091
1920.666016	-296.938965
1919.625000	374.130951
1918.583984	16.535133
1917.544922	-215.938751
1916.503906	207.041336
1915.462891	-2.150960
1914.421875	182.242554
1913.378906	-96.236916
1912.337891	115.899696
1911.296875	34.138912
1910.253906	-170.126480
1909.212891	-642.665283
1908.169922	-28.114119
1907.128906	183.883163
1906.085938	-221.349167
1905.042969	841.257874
1904.000000	-14.553251
1902.957031	356.835144
1901.914063	1100.040527
1900.871094	-376.678741
1899.826172	449.632538
1898.783203	324.307098
1897.740234	-419.676270
1896.695313	23.106504
1895.650391	322.669647
1894.607422	529.785034
1893.562500	1163.722534
1892.517578	773.285278
1891.472656	968.801758
1890.427734	350.272430
1889.382813	647.275818
1888.335938	911.986084
1887.291016	1602.946655
1886.244141	795.896118
1885.199219	850.768494
1884.152344	901.107178
1883.105469	933.020020
1882.060547	396.059937
1881.013672	352.106537
1879.966797	4.298690
1878.919922	1109.027466
1877.873047	807.285400
1876.824219	896.895447
1875.777344	519.416077
1874.728516	454.969330
1873.681641	930.965088
1872.632813	284.767761
1871.585938	1144.623047
1870.537109	795.176697
1869.488281	627.434570
1868.439453	595.358032
1867.390625	538.041138
1866.341797	168.351486
1865.291016	818.643677
1864.242188	683.319092
1863.193359	19.990171
1862.142578	148.956818
1861.093750	452.284363
1860.042969	305.806793
1858.992188	214.482712
1857.941406	283.796875
1856.890625	483.866882
1855.839844	351.357208
1854.789063	-17.239637
1853.738281	937.115845
1852.687500	-96.130638
1851.634766	498.235321
1850.583984	212.473602
1849.531250	-577.127930
1848.478516	-427.267303
1847.427734	-508.798950
1846.375000	9.744996
1845.322266	-234.263351
1844.269531	517.621704
1843.216797	-138.294678
1842.162109	-487.243042
1841.109375	-458.597137
1840.056641	327.279694
1839.001953	-421.733490
1837.949219	-1467.807617
1836.894531	182.299438
1835.839844	-232.431183
1834.785156	-310.991333
1833.732422	-746.064209
1832.677734	-202.930664
1831.621094	-635.379150
1830.566406	-727.370544
1829.511719	-506.400391
1828.457031	-337.991760
1827.400391	-603.304016
1826.343750	-617.395569
1825.289063	-225.262756
1824.232422	-675.177551
1823.175781	319.309143
1822.119141	65.729042
1821.062500	-265.276886
1820.005859	-596.130127
1818.949219	-792.299011
1817.892578	-872.103455
1816.833984	-612.163147
1815.777344	-753.409363
1814.718750	-930.948914
1813.662109	-333.900909
1812.603516	-1083.067261
1811.544922	-265.124359
1810.486328	-465.212646
1809.427734	-305.480042
1808.369141	-685.215210
1807.310547	-400.230347
1806.251953	-197.212448
1805.191406	-333.124146
1804.132813	206.570374
1803.072266	-229.476257
1802.013672	-276.548859
1800.953125	-316.666321
1799.892578	-243.060730
1798.832031	-517.161438
1797.771484	-91.217964
1796.710938	-492.378387
1795.650391	19.849848
1794.589844	-1123.798462
1793.527344	47.097858
1792.466797	-249.161606
1791.404297	435.507294
1790.343750	-42.189850
1789.281250	333.690765
1788.218750	37.877098
1787.156250	-92.169518
1786.093750	757.762268
1785.031250	237.680634
1783.968750	629.359436
1782.906250	381.642883
1781.841797	401.609222
1780.779297	732.056213
1779.714844	502.819977
1778.652344	1259.189941
1777.587891	438.846497
1776.523438	6.125785
1775.458984	96.700165
1774.394531	889.179382
1773.330078	771.438904
1772.265625	712.650940
1771.201172	719.573669
1770.134766	746.989746
1769.070313	937.264954
1768.003906	1290.472046
1766.939453	872.398193
1765.873047	355.116577
1764.806641	898.337402
1763.740234	783.693787
1762.673828	877.069092
1761.607422	789.713562
1760.541016	799.604309
1759.474609	757.600952
1758.406250	1083.885864
1757.339844	1181.986450
1756.271484	1300.524536
1755.205078	1028.504150
1754.136719	228.601944
1753.068359	767.167725
1752.000000	1285.311279
1750.931641	1110.837769
1749.863281	810.184875
1748.794922	787.079773
1747.726563	998.538330
1746.656250	1304.751831
1745.587891	1094.722046
1744.517578	576.174805
1743.449219	1310.556641
1742.378906	846.367371
1741.308594	889.197571
1740.238281	675.360168
1739.167969	1220.480591
1738.097656	484.520050
1737.027344	782.041565
1735.957031	703.709656
1734.884766	1264.591675
1733.814453	340.452454
1732.742188	858.629883
1731.671875	510.770905
1730.599609	842.276489
1729.527344	571.212463
1728.455078	949.962036
1727.382813	404.939636
1726.310547	1174.755005
1725.238281	697.447754
1724.166016	447.268158
1723.091797	87.277367
1722.019531	255.135651
1720.945313	860.926025
1719.871094	50.080318
1718.798828	379.717255
1717.724609	895.678528
1716.650391	-116.448296
1715.576172	-80.490868
1714.501953	-30.995705
1713.427734	276.467285
1712.351563	119.851265
1711.277344	629.134033
1710.201172	351.643524
1709.126953	222.177322
1708.050781	361.806122
1706.974609	476.842865
1705.900391	679.209290
1704.824219	93.328590
1703.748047	918.466370
1702.669922	167.327164
1701.593750	896.112610
1700.517578	1148.019287
1699.439453	307.986542
1698.363281	401.238556
1697.285156	863.747437
1696.208984	966.010376
1695.130859	1090.781250
1694.052734	1088.160400
1692.974609	522.288696
1691.896484	1054.151001
1690.818359	980.317993
1689.740234	1071.946289
1688.660156	1340.218872
1687.582031	1385.044434
1686.501953	1995.062378
1685.423828	1053.024292
1684.343750	2053.781250
1683.263672	2384.658203
1682.183594	1894.225952
1681.103516	2847.781982
1680.023438	2558.435547
1678.943359	2229.140625
1677.863281	2453.163086
1676.783203	2831.081299
1675.701172	2705.181885
1674.621094	3319.424316
1673.539063	3380.912598
1672.457031	3482.595215
1671.375000	3660.105957
1670.294922	4082.618408
1669.212891	3687.761719
1668.128906	3716.341553
1667.046875	4432.947754
1665.964844	4664.102051
1664.882813	4403.391113
1663.798828	4532.407715
1662.716797	5449.076660
1661.632813	5653.731934
1660.548828	5578.164551
1659.464844	6454.584961
1658.380859	6456.955078
1657.296875	6726.220215
1656.212891	6811.006348
1655.128906	7467.047852
1654.044922	8129.657227
1652.958984	8945.531250
1651.875000	8985.911133
1650.789063	9292.994141
1649.705078	9950.856445
1648.619141	10963.939453
1647.533203	11972.357422
1646.447266	13422.222656
1645.361328	14427.900391
1644.275391	15688.509766
1643.189453	16400.878906
1642.101563	17525.751953
1641.015625	18898.656250
1639.929688	20444.164063
1638.841797	22463.773438
1637.753906	23906.525391
1636.666016	25670.259766
1635.580078	26584.783203
1634.492188	29362.361328
1633.404297	31454.687500
1632.314453	33814.492188
1631.226563	36226.687500
1630.138672	37256.695313
1629.048828	39437.617188
1627.960938	42164.500000
1626.871094	43795.328125
1625.781250	45412.468750
1624.693359	47345.425781
1623.603516	49058.976563
1622.513672	51406.726563
1621.423828	52681.511719
1620.332031	54968.515625
1619.242188	56284.507813
1618.152344	57339.437500
1617.060547	57963.371094
1615.970703	59676.195313
1614.878906	61532.246094
1613.787109	61709.453125
1612.695313	63083.445313
1611.605469	63150.117188
1610.511719	64437.664063
1609.419922	64689.796875
1608.328125	65021.402344
1607.236328	65595.703125
1606.142578	66503.101563
1605.050781	66373.710938
1603.957031	67583.007813
1602.865234	67222.226563
1601.771484	66800.085938
1600.677734	66973.257813
1599.583984	66703.585938
1598.490234	66418.726563
1597.396484	66521.781250
1596.302734	66792.304688
1595.207031	66391.351563
1594.113281	66512.367188
1593.017578	65931.328125
1591.923828	66743.742188
1590.828125	65617.398438
1589.732422	65646.679688
1588.636719	64679.546875
1587.541016	64636.644531
1586.445313	64560.925781
1585.349609	64667.843750
1584.253906	64651.757813
1583.156250	62767.609375
1582.060547	62752.113281
1580.962891	62734.664063
1579.865234	62477.898438
1578.769531	61327.265625
1577.671875	61466.390625
1576.574219	61629.773438
1575.476563	60137.878906
1574.378906	60859.246094
1573.279297	59390.308594
1572.181641	59253.847656
1571.083984	58101.789063
1569.984375	58597.726563
1568.886719	56893.734375
1567.787109	57613.652344
1566.687500	56886.433594
1565.587891	55537.058594
1564.488281	55615.078125
1563.388672	54349.910156
1562.289063	54090.976563
1561.189453	52603.328125
1560.087891	52106.421875
1558.988281	50757.855469
1557.886719	50485.035156
1556.787109	49233.800781
1555.685547	48033.582031
1554.583984	47577.957031
1553.482422	46531.867188
1552.380859	45864.734375
1551.279297	44703.636719
1550.177734	43136.308594
1549.074219	43043.500000
1547.972656	41665.273438
1546.871094	40919.363281
1545.767578	40235.160156
1544.664063	39195.152344
1543.560547	38271.425781
1542.458984	37492.226563
1541.355469	36750.667969
1540.250000	36319.695313
1539.146484	35048.335938
1538.042969	34565.578125
1536.939453	34336.312500
1535.833984	33212.691406
1534.730469	32261.843750
1533.625000	31822.033203
1532.519531	30998.644531
1531.414063	31261.675781
1530.310547	30161.949219
1529.205078	29522.824219
1528.097656	29376.761719
1526.992188	29278.738281
1525.886719	27710.152344
1524.779297	28035.474609
1523.673828	28086.287109
1522.566406	26909.078125
1521.460938	26633.742188
1520.353516	26990.113281
1519.246094	26599.916016
1518.138672	25868.312500
1517.031250	25522.255859
1515.923828	25098.138672
1514.816406	24713.476563
1513.707031	24938.162109
1512.599609	25056.259766
1511.490234	25068.060547
1510.382813	24427.761719
1509.273438	24013.978516
1508.164063	24623.978516
1507.054688	24490.880859
1505.945313	23751.916016
1504.835938	24246.992188
1503.726563	24027.625000
1502.615234	23602.330078
1501.505859	23880.562500
1500.394531	23297.302734
1499.285156	23376.156250
1498.173828	22366.042969
1497.062500	22291.423828
1495.951172	22585.714844
1494.839844	21843.453125
1493.728516	22996.654297
1492.617188	22352.437500
1491.505859	22064.066406
1490.394531	22101.019531
1489.281250	22268.248047
1488.169922	22132.152344
1487.056641	21567.488281
1485.943359	21962.580078
1484.830078	21788.203125
1483.716797	21194.042969
1482.603516	21245.289063
1481.490234	21244.726563
1480.376953	21198.886719
1479.263672	21083.978516
1478.148438	21313.326172
1477.035156	20882.978516
1475.919922	21013.121094
1474.804688	21203.916016
1473.689453	20904.097656
1472.576172	20790.283203
1471.460938	21003.093750
1470.343750	20697.560547
1469.228516	21169.853516
1468.113281	20423.966797
1466.998047	20337.140625
1465.880859	21207.132813
1464.765625	21047.115234
1463.648438	20514.019531
1462.531250	21474.644531
1461.414063	21282.880859
1460.296875	20763.433594
1459.179688	21984.986328
1458.062500	21571.574219
1456.945313	21578.919922
1455.826172	22125.517578
1454.708984	21583.421875
1453.589844	22500.828125
1452.472656	22398.742188
1451.353516	22583.503906
1450.234375	22492.640625
1449.115234	24269.224609
1447.996094	24036.292969
1446.876953	24193.283203
1445.757813	23975.830078
1444.638672	24666.843750
1443.517578	25360.058594
1442.398438	24714.816406
1441.277344	26227.695313
1440.156250	26081.947266
1439.037109	26998.587891
1437.916016	26607.957031
1436.794922	27473.037109
1435.673828	28163.888672
1434.550781	28990.175781
1433.429688	28032.845703
1432.308594	28792.451172
1431.185547	29530.609375
1430.064453	29781.039063
1428.941406	30703.740234
1427.818359	30750.382813
1426.695313	31982.000000
1425.572266	32166.060547
1424.449219	31931.796875
1423.326172	33034.328125
1422.203125	33531.738281
1421.080078	33924.050781
1419.955078	34651.023438
1418.832031	35124.777344
1417.707031	35733.703125
1416.582031	36499.023438
1415.457031	36580.671875
1414.332031	37270.910156
1413.207031	38342.355469
1412.082031	38520.472656
1410.957031	38878.558594
1409.832031	39647.750000
1408.705078	39708.414063
1407.580078	40946.222656
1406.453125	41698.136719
1405.326172	42482.035156
1404.201172	41791.753906
1403.074219	43223.746094
1401.947266	43983.890625
1400.820313	44190.164063
1399.691406	45439.882813
1398.564453	45507.199219
1397.437500	46972.261719
1396.308594	46800.429688
1395.181641	48314.207031
1394.052734	49229.679688
1392.923828	49856.679688
1391.794922	51156.222656
1390.666016	50598.125000
1389.537109	51903.785156
1388.408203	52174.078125
1387.279297	52905.324219
1386.148438	53841.417969
1385.019531	54028.492188
1383.888672	55872.886719
1382.759766	56200.558594
1381.628906	55775.812500
1380.498047	57052.390625
1379.367188	57098.941406
1378.236328	59223.234375
1377.105469	59883.265625
1375.974609	60021.320313
1374.841797	61426.867188
1373.710938	61362.574219
1372.578125	62476.003906
1371.447266	62186.187500
1370.314453	63544.125000
1369.181641	63929.238281
1368.048828	64827.105469
1366.916016	65720.570313
1365.783203	66692.546875
1364.650391	65943.914063
1363.515625	66869.164063
1362.382813	67149.960938
1361.248047	67945.304688
1360.115234	68245.187500
1358.980469	68296.671875
1357.845703	68764.632813
1356.710938	68775.906250
1355.576172	69305.492188
1354.441406	69503.773438
1353.306641	69791.289063
1352.171875	69747.703125
1351.035156	69967.554688
1349.900391	69588.945313
1348.763672	70292.734375
1347.626953	69619.742188
1346.492188	69878.015625
1345.355469	69994.390625
1344.218750	69640.187500
1343.082031	69250.187500
1341.943359	69335.343750
1340.806641	67945.593750
1339.669922	67552.203125
1338.531250	67635.859375
1337.394531	67319.148438
1336.255859	67040.929688
1335.117188	65996.484375
1333.978516	65286.988281
1332.839844	64914.371094
1331.701172	63915.613281
1330.562500	62864.402344
1329.423828	62145.796875
1328.283203	60943.355469
1327.144531	60047.917969
1326.003906	59250.300781
1324.865234	58235.183594
1323.724609	57326.351563
1322.583984	56496.140625
1321.443359	55391.625000
1320.302734	54868.574219
1319.162109	52742.609375
1318.019531	50670.425781
1316.878906	50837.128906
1315.736328	49141.976563
1314.595703	48300.128906
1313.453125	47140.148438
1312.310547	46723.414063
1311.169922	44973.429688
1310.027344	44420.308594
1308.884766	43485.746094
1307.740234	41550.148438
1306.597656	41206.921875
1305.455078	40031.277344
1304.310547	39210.367188
1303.167969	38834.304688
1302.023438	36960.636719
1300.878906	36509.597656
1299.734375	35635.484375
1298.591797	34374.132813
1297.445313	33442.074219
1296.300781	33118.644531
1295.156250	32182.941406
1294.011719	31658.001953
1292.865234	29932.097656
1291.720703	29559.373047
1290.574219	28705.361328
1289.427734	28038.898438
1288.281250	27227.673828
1287.134766	26296.992188
1285.988281	25297.347656
1284.841797	25214.400391
1283.695313	24398.255859
1282.548828	23746.345703
1281.400391	23252.437500
1280.253906	22139.089844
1279.105469	22210.621094
1277.957031	21717.474609
1276.808594	20827.861328
1275.660156	20163.193359
1274.511719	19616.337891
1273.363281	19814.521484
1272.214844	18978.609375
1271.066406	17645.998047
1269.916016	17196.876953
1268.767578	17043.437500
1267.617188	16733.070313
1266.466797	16257.313477
1265.316406	16083.541992
1264.166016	15543.254883
1263.015625	14661.778320
1261.865234	14901.181641
1260.714844	13978.379883
1259.564453	14203.306641
1258.412109	13511.494141
1257.261719	12903.558594
1256.109375	13043.115234
1254.957031	12236.984375
1253.804688	12719.813477
1252.652344	11725.897461
1251.500000	11533.321289
1250.347656	11207.054688
1249.195313	10797.343750
1248.042969	11008.603516
1246.888672	10509.481445
1245.736328	9598.811523
1244.582031	10125.953125
1243.427734	9201.302734
1242.273438	9603.148438
1241.119141	8879.465820
1239.964844	8811.606445
1238.810547	8111.372559
1237.656250	8776.294922
1236.501953	8491.638672
1235.345703	7810.902344
1234.191406	8342.185547
1233.035156	7932.926758
1231.878906	7822.029785
1230.722656	6773.040527
1229.566406	7469.160645
1228.410156	7127.194336
1227.253906	6970.843750
1226.097656	6716.661621
1224.939453	6871.047363
1223.783203	6323.395508
1222.625000	6575.747070
1221.468750	5976.347168
1220.310547	6072.620605
1219.152344	5767.204590
1217.994141	6206.902832
1216.835938	5857.949219
1215.677734	5941.826172
1214.519531	5892.595703
1213.359375	5144.851563
1212.201172	5050.089844
1211.041016	4847.445313
1209.882813	4883.757324
1208.722656	4724.902344
1207.562500	4595.214844
1206.402344	4987.020996
1205.242188	4560.358398
1204.082031	4758.945801
1202.919922	4556.907227
1201.759766	4060.012695
1200.599609	3621.418945
1199.437500	3830.641357
1198.275391	3722.333984
1197.115234	3613.923828
1195.953125	3762.928223
1194.791016	3380.977051
1193.628906	3473.999268
1192.464844	3473.869629
1191.302734	3892.295410
1190.140625	3075.402100
1188.976563	3417.251465
1187.814453	3617.958008
1186.650391	2766.483154
1185.486328	2551.113525
1184.322266	2296.473389
1183.158203	2060.553711
1181.994141	2629.931152
1180.830078	2377.471924
1179.666016	2708.635498
1178.500000	2526.733887
1177.335938	1899.991577
1176.169922	2570.392334
1175.003906	2295.536133
1173.839844	1956.507568
1172.673828	2347.462158
1171.507813	1708.984253
1170.341797	1620.392944
1169.173828	1191.070068
1168.007813	1521.912476
1166.841797	945.919250
1165.673828	630.448242
1164.505859	977.841980
1163.339844	1275.388794
1162.171875	1005.368042
1161.003906	795.270874
1159.835938	1212.455566
1158.667969	1138.491089
1157.500000	437.493530
1156.330078	893.780945
1155.162109	661.057068
1153.992188	929.490479
1152.824219	591.652588
1151.654297	942.375610
1150.484375	361.596954
1149.314453	396.971710
1148.144531	300.459503
1146.974609	259.551361
1145.804688	187.730392
1144.632813	461.915192
1143.462891	435.280396
1142.291016	419.062683
1141.119141	746.434814
1139.949219	110.663712
1138.777344	396.743134
1137.605469	287.799286
1136.433594	333.065338
1135.261719	351.539978
1134.087891	199.492264
1132.916016	170.606934
1131.742188	152.102707
1130.570313	447.735229
1129.396484	484.535156
1128.222656	361.067291
1127.050781	101.896988
1125.876953	212.468063
1124.701172	238.927292
1123.527344	579.180542
1122.353516	242.073822
1121.179688	553.348145
1120.003906	476.903503
1118.828125	683.446472
1117.654297	282.699982
1116.478516	993.449036
1115.302734	685.041443
1114.126953	612.366516
1112.951172	795.805847
1111.775391	946.319153
1110.597656	453.602020
1109.421875	687.946960
1108.244141	475.839874
1107.068359	644.410034
1105.890625	874.408081
1104.712891	486.097473
1103.535156	631.961304
1102.357422	738.818604
1101.179688	737.121399
1100.001953	608.516846
1098.822266	655.886108
1097.644531	774.572449
1096.464844	365.815674
1095.287109	698.944336
1094.107422	265.619232
1092.927734	451.480682
1091.748047	759.761902
1090.568359	430.531982
1089.388672	530.188171
1088.207031	137.754196
1087.027344	535.292053
1085.845703	561.233032
1084.666016	231.796234
1083.484375	214.712875
1082.302734	679.011902
1081.121094	170.035980
1079.939453	558.498657
1078.757813	171.840240
1077.576172	-151.596741
1076.394531	-102.004837
1075.210938	-186.917480
1074.029297	-677.576233
1072.845703	135.902161
1071.662109	-495.298828
1070.480469	476.345062
1069.296875	223.821167
1068.113281	-246.592636
1066.929688	21.977543
1065.744141	-242.788849
1064.560547	-302.199707
1063.375000	-420.578857
1062.191406	-221.846436
1061.005859	-454.366302
1059.820313	-190.741577
1058.636719	-49.476608
1057.451172	-329.065765
1056.265625	-320.076172
1055.078125	-439.111969
1053.892578	-60.585659
1052.707031	-1051.558105
1051.519531	-687.419556
1050.333984	-1044.619751
1049.146484	-110.332703
1047.958984	-520.443909
1046.771484	-443.415375
1045.583984	-664.888855
1044.396484	-746.427856
1043.208984	-341.197571
1042.019531	-309.340302
1040.832031	-758.422546
1039.642578	-323.302338
1038.455078	-267.732544
1037.265625	-891.240417
1036.076172	-458.813965
1034.886719	-294.165222
1033.697266	-269.521790
1032.507813	-931.724487
1031.318359	-299.727509
1030.126953	-694.601929
1028.937500	-53.064392
1027.746094	-434.006348
1026.556641	-517.608032
1025.365234	-30.582466
1024.173828	-648.543518
1022.982422	-20.402370
1021.791016	-511.077911
1020.599609	-170.661011
1019.406250	-166.018509
1018.214844	236.544968
1017.021484	-282.699768
1015.830078	396.236938
1014.636719	-438.391052
1013.443359	189.613937
1012.250000	-61.354477
1011.056641	-66.051140
1009.863281	-220.336334
1008.669922	144.046829
1007.474609	146.970383
1006.281250	147.562241
1005.085938	-25.421267
1003.892578	-25.171158
1002.697266	192.848785
1001.501953	-24.980625
1000.306641	39.351452
999.111328	528.828552
997.916016	-251.858810
996.720703	-151.820816
995.523438	165.717392
994.328125	138.347763
993.130859	66.600983
991.933594	-5.315093
990.736328	27.294048
989.541016	830.610718
988.341797	601.127747
987.144531	651.135925
985.947266	640.560669
984.750000	362.221527
983.550781	337.335144
982.353516	129.125824
981.154297	302.941223
979.955078	229.215607
978.755859	109.073204
977.556641	690.153931
976.357422	117.457123
975.158203	-15.275803
973.958984	-196.385361
972.757813	70.330048
971.558594	-323.996155
970.357422	357.805206
969.158203	-107.115318
967.957031	-339.172089
966.755859	-264.348572
965.554688	-35.289867
964.353516	-65.285713
963.150391	-71.309402
961.949219	-268.158752
960.748047	-272.689484
959.544922	-68.852577
958.341797	-326.273224
957.140625	-351.489075
955.937500	-34.207397
954.734375	-242.083405
953.531250	-329.945770
952.326172	-361.818115
951.123047	-462.088776
949.919922	-188.214584
948.714844	21.400776
947.511719	-565.823914
946.306641	-378.676422
945.101563	-33.789188
943.896484	-295.264252
942.691406	59.030773
941.486328	-226.822571
940.281250	-484.824707
939.074219	-269.171570
937.869141	79.960602
936.662109	-524.202820
935.457031	-143.648911
934.250000	32.920292
933.042969	-383.908661
931.835938	-427.456421
930.628906	-225.676483
929.421875	181.376099
928.212891	-12.517739
927.005859	-292.483765
925.796875	-127.620346
924.589844	112.647652
923.380859	229.048355
922.171875	355.140869
920.962891	-304.504730
919.753906	297.533142
918.544922	327.176086
917.335938	248.974686
916.125000	326.045654
914.916016	554.130981
913.705078	302.045959
912.494141	659.099304
911.285156	185.523087
910.074219	442.462280
908.863281	295.078308
907.652344	374.339752
906.439453	849.321045
905.228516	558.001465
904.017578	165.108185
902.804688	585.464355
901.591797	568.054382
900.380859	649.700256
899.167969	464.855804
897.955078	1050.803589
896.742188	770.102112
895.527344	680.033020
894.314453	1034.528687
893.101563	594.382751
891.886719	390.489044
890.673828	587.297974
889.458984	728.315369
888.244141	295.565430
887.029297	227.770889
885.814453	552.513855
884.599609	476.274872
883.384766	457.319641
882.167969	682.069763
880.953125	345.427979
879.736328	-1.169201
878.519531	337.735718
877.304688	359.195648
876.087891	178.429825
874.871094	-77.782661
873.654297	79.714622
872.435547	431.019714
871.218750	221.667175
870.001953	192.243774
868.783203	146.834595
867.564453	202.100266
866.347656	164.046860
865.128906	250.440796
863.910156	-27.302124
862.691406	422.400452
861.472656	470.408173
860.251953	237.572815
859.033203	123.058594
857.812500	4.466774
856.593750	172.033539
855.373047	-35.899284
854.152344	528.130554
852.931641	653.396912
851.710938	879.056458
850.490234	257.652496
849.269531	508.466797
848.046875	417.683014
846.826172	387.766724
845.603516	408.971252
844.382813	575.787231
843.160156	647.735840
841.937500	610.986816
840.714844	778.997620
839.492188	787.085205
838.267578	708.301208
837.044922	658.781982
835.822266	715.403687
834.597656	389.783295
833.373047	682.300354
832.150391	748.011902
830.925781	1138.306152
829.701172	1608.911621
828.476563	1282.223389
827.250000	920.067139
826.025391	1173.391113
824.800781	1324.126587
823.574219	1344.863647
822.347656	1438.102783
821.123047	1572.283447
819.896484	1688.560547
818.669922	2016.779419
817.443359	1664.901733
816.216797	1589.873657
814.988281	1583.442505
813.761719	1305.740723
812.533203	1644.429688
811.306641	1482.166626
810.078125	1610.252441
808.849609	1765.535889
807.621094	2128.498047
806.392578	1712.374634
805.164063	1966.900513
803.935547	1838.744751
802.705078	1939.850342
801.476563	1378.095337
800.246094	1588.548096
799.017578	2006.357910
797.787109	1830.232178
796.556641	2145.613281
795.326172	2112.049316
794.095703	1819.806885
792.863281	1760.482178
791.632813	1853.584595
790.402344	1347.558472
789.169922	1835.600708
787.937500	1859.578369
786.705078	1720.976929
785.474609	1775.778442
784.242188	1687.655273
783.007813	1325.689575
781.775391	1467.919556
780.542969	1664.619141
779.308594	1800.517578
778.076172	1529.721924
776.841797	1217.849365
775.607422	1396.102905
774.375000	1552.565308
773.140625	1609.246582
771.904297	1525.205566
770.669922	1509.256470
769.435547	1282.361328
768.199219	1211.485107
766.964844	1341.311035
765.728516	1607.474243
764.494141	1471.588867
763.257813	1452.589600
762.021484	1686.827393
760.785156	1014.483398
759.546875	1100.281860
758.310547	1450.793335
757.074219	1037.363892
755.835938	1155.666138
754.599609	979.639832
753.361328	1436.323975
752.123047	1069.216675
750.884766	1646.041992
749.646484	1471.321045
748.408203	880.109924
747.167969	1263.587158
745.929688	1070.989746
744.689453	1323.661255
743.451172	1579.921875
742.210938	1637.672607
740.970703	1232.644775
739.730469	1430.019653
738.490234	1784.544922
737.250000	1350.062012
736.009766	1890.611450
734.767578	1533.658325
733.527344	1685.335815
732.285156	1528.173462
731.044922	1594.083008
729.802734	1657.913452
728.560547	2185.301025
727.318359	1728.786621
726.076172	1510.852295
724.832031	1426.699463
723.589844	1699.152832
722.345703	1843.456909
721.103516	1471.941528
719.859375	1427.967285
718.615234	1598.938477
717.371094	1634.102661
716.126953	1866.684570
714.882813	1955.740356
713.638672	1998.158813
712.394531	1995.906250
711.148438	1788.380859
709.902344	1724.008179
708.658203	2160.644043
707.412109	1770.960938
706.166016	1980.912476
704.919922	1765.199585
703.673828	1903.292969
702.427734	1627.499146
701.179688	2101.695068
699.933594	1559.030518
698.685547	1849.277100
697.437500	1202.327026
696.191406	1513.526733
694.943359	1766.607422
693.695313	1185.333130
692.447266	1295.307495
691.197266	1644.523071
689.949219	1410.648560
688.699219	1971.780518
687.451172	1303.650757
686.201172	1598.218628
684.951172	1223.374512
683.701172	1241.932739
682.451172	1431.973633
681.201172	1510.065308
679.951172	936.631775
678.701172	1226.573486
677.449219	1092.514404
676.199219	1380.235718
674.947266	1053.448242
673.695313	936.582825
672.443359	1283.664917
671.191406	1020.360474
669.939453	884.101318
668.687500	1011.436340
667.433594	790.469116
666.181641	1150.400757
664.927734	1269.768555
663.675781	1504.379272
662.421875	994.848022
661.167969	887.180786
659.914063	1156.192261
658.660156	817.841492
657.406250	1248.052368
656.150391	1313.123047
654.896484	1266.701904
653.640625	1145.390625
652.384766	1504.059326
651.130859	1280.902832
649.875000	950.334900
648.619141	1333.682983
647.361328	1448.291748
646.105469	1558.958740
644.849609	1119.122314
643.591797	1225.951050
642.335938	1133.289795
641.078125	1151.848633
639.820313	944.224976
638.562500	1629.624023
637.304688	1121.153320
636.046875	1133.881470
634.789063	985.712952
633.531250	1486.739624
632.271484	1221.782227
631.011719	1280.414917
629.753906	1360.047974
628.494141	1269.375122
627.234375	1115.591675
625.974609	1111.070923
624.714844	1154.373657
623.455078	1157.509644
622.193359	1244.803589
620.933594	1005.167419
619.671875	1253.029419
618.410156	1193.158936
617.148438	1280.441162
615.888672	890.118103
614.625000	1050.069580
613.363281	866.232483
612.101563	848.591675
610.839844	283.121857
609.576172	880.241638
608.314453	641.339050
607.050781	1110.424805
605.787109	602.686279
604.523438	676.887207
603.259766	426.916412
601.996094	436.377594
600.730469	417.314606
599.466797	396.372620
598.203125	154.431366
596.937500	427.081787
595.671875	189.163025
594.406250	-273.361908
593.140625	-40.600304
591.875000	176.903030
590.609375	-188.115494
589.343750	71.338402
588.076172	-97.370377
586.810547	-144.211548
585.542969	3.093579
584.275391	-190.030685
583.009766	-166.258118
581.742188	-334.418793
580.472656	-394.053345
579.205078	-392.800781
577.937500	-98.815163
576.667969	-338.715057
575.400391	-399.905762
574.130859	-329.903534
572.861328	-425.046844
571.593750	-630.221558
570.324219	-250.509537
569.052734	-793.232666
567.783203	-375.473694
566.513672	-367.588837
565.242188	-162.281311
563.972656	-4.392620
562.701172	-125.182655
561.429688	-185.147446
560.160156	-415.631348
558.888672	-111.393333
557.615234	130.350204
556.343750	-196.318375
555.072266	55.027245
553.798828	154.915680
552.527344	76.850060
551.253906	292.440582
549.980469	-29.544722
548.707031	172.997452
547.433594	86.057182
546.160156	129.835434
544.886719	-164.892624
543.611328	142.121780
542.337891	-492.629120
541.062500	24.483419
539.789063	407.298492
538.513672	-181.343399
537.238281	-251.848206
535.962891	0.914651
534.687500	-59.857891
533.410156	-229.970200
532.134766	-184.624878
530.857422	106.345261
529.582031	-121.810196
528.304688	163.697906
527.027344	-498.073334
525.750000	-442.473969
524.472656	32.063938
523.195313	63.354370
521.917969	-403.054291
520.638672	-277.058044
519.361328	-249.000961
518.082031	-162.320724
516.802734	-778.415405
515.523438	-235.357773
514.244141	53.361320
512.964844	-162.627853
511.685547	-7.374712
510.406250	-806.608398
509.125000	-360.992340
507.843750	-453.656830
506.564453	-395.604523
505.283203	-149.189987
504.001953	-19.314016
502.720703	50.516785
501.439453	-580.938599
500.158203	-106.413315
498.875000	-49.154705
497.593750	-119.582436
496.310547	16.968163
495.027344	307.734894
493.746094	-17.627581
492.462891	342.933716
491.179688	-75.781784
489.894531	82.320297
488.611328	315.613037
487.328125	106.061638
486.042969	78.866722
484.759766	479.630066
483.474609	456.533539
482.189453	686.862671
480.904297	373.477722
479.619141	553.527893
478.333984	900.564880
477.046875	897.240356
475.761719	783.511169
474.474609	626.989136
473.189453	399.492889
471.902344	790.432312
470.615234	1054.109497
469.328125	995.857117
468.041016	960.304688
466.753906	797.702820
465.464844	947.944153
464.177734	1100.171143
462.888672	874.727356
461.599609	621.521973
460.312500	1032.447266
459.023438	688.122192
457.734375	1254.544556
456.443359	1069.667847
455.154297	901.840698
453.865234	1035.109863
452.574219	793.116882
451.285156	788.587646
449.994141	862.770081
448.703125	985.691162
447.412109	793.304138
446.121094	784.120972
444.830078	431.794098
443.537109	473.560974
442.246094	618.080139
440.953125	839.303284
439.662109	708.160950
438.369141	834.649048
437.076172	752.529541
435.783203	661.341431
434.490234	475.369812
433.197266	265.466125
431.902344	702.347046
430.609375	384.899506
429.314453	337.869659
428.019531	296.669403
426.726563	400.853882
425.431641	765.858643
424.136719	254.461685
422.839844	679.416931
421.544922	270.977600
420.250000	515.752747
418.953125	465.043854
417.658203	598.586670
416.361328	334.543640
415.064453	537.342712
413.767578	554.456055
412.470703	787.312683
411.173828	734.228516
409.875000	664.733704
408.578125	459.856079
407.279297	491.133514
405.980469	743.530518
404.683594	1021.975403
403.384766	352.327850
402.085938	395.610138
400.787109	1125.473755
399.486328	753.638550
398.187500	1060.803101
396.886719	663.584167
395.587891	485.393738
394.287109	806.130920
392.986328	641.444458
391.685547	617.837219
390.384766	531.468262
389.083984	760.203796
387.783203	683.515259
386.480469	573.804932
385.179688	190.288589
383.876953	580.846313
382.574219	762.362488
381.271484	83.667976
379.968750	589.339600
378.666016	164.704086
377.363281	186.084381
376.058594	412.958923
374.755859	81.601334
373.451172	257.056000
372.148438	242.228241
370.843750	137.143936
369.539063	80.313416
368.234375	-116.675011
366.929688	233.200531
365.623047	138.256317
364.318359	-117.152557
363.011719	81.826988
361.707031	-117.751762
360.400391	188.535507
359.093750	-71.432053
357.787109	-69.226501
356.480469	110.181641
355.171875	221.563507
353.865234	-122.323662
352.558594	-86.240250
351.250000	99.339394
349.941406	-179.273849
348.632813	303.172028
347.324219	155.718018
346.015625	172.370010
344.707031	102.645546
343.398438	204.296509
342.087891	560.135071
340.779297	417.238068
339.468750	473.325714
338.158203	-138.203384
336.849609	-67.103844
335.539063	537.474609
334.226563	561.077332
332.916016	507.528625
331.605469	253.809448
330.292969	533.295959
328.982422	375.471558
327.669922	181.176865
326.357422	-45.972649
325.044922	241.247284
323.732422	447.709381
322.419922	-278.287903
321.107422	-238.571075
319.792969	-125.266693
318.480469	109.125374
317.166016	11.608385
315.851563	-322.348175
314.537109	-204.981033
313.222656	-296.554352
311.908203	-422.816620
310.593750	-220.867889
309.277344	-509.896271
307.962891	-278.485901
306.646484	-202.678360
305.332031	-436.405975
304.015625	-100.389526
302.699219	-42.684395
301.382813	-332.710999
300.066406	-719.546082
298.748047	-128.935455
297.431641	-327.066650
296.113281	-665.811646
294.796875	-196.080994
293.478516	-432.183777
292.160156	-439.601959
290.841797	22.825994
289.523438	-368.332062
288.203125	-315.176849
286.884766	-483.127655
285.564453	-619.820801
284.246094	-228.691437
282.925781	-273.969452
281.605469	-207.820908
280.285156	-174.498276
278.964844	-257.945404
277.644531	-111.406929
276.322266	49.802052
275.001953	-414.746307
273.679688	-291.761719
272.359375	-41.234615
271.037109	-89.667603
269.714844	-263.824646
268.392578	-306.676819
267.070313	-74.343643
265.746094	-2.307960
264.423828	266.361633
263.099609	-309.989532
261.777344	-26.758188
260.453125	-162.255219
259.128906	-192.119507
257.804688	-212.864929
256.480469	-451.946777
255.156250	-99.679619
253.830078	-116.690727
252.505859	-528.423279
251.179688	-116.235046
249.855469	-602.365967
248.529297	-63.084003
247.203125	-169.152634
245.876953	-251.573700
244.548828	54.884926
243.222656	-412.644958
241.896484	-126.356857
240.568359	-206.878052
239.240234	-427.178497
237.914063	-373.427063
236.585938	-227.075836
235.257813	29.882099
233.927734	-464.239197
232.599609	-149.337830
231.271484	94.701195
229.941406	-228.815887
228.613281	127.490707
227.283203	255.344131
225.953125	-338.142365
224.623047	-41.809643
223.292969	-26.408691
221.960938	57.862743
220.630859	103.956039
219.300781	318.384613
217.968750	92.880356
216.636719	408.600525
215.304688	322.427429
213.972656	107.782486
212.640625	168.145782
211.308594	-93.502510
209.976563	261.563995
208.642578	77.741257
207.310547	298.799530
205.976563	208.941101
204.642578	158.832565
203.308594	255.056229
201.974609	40.487461
200.640625	-22.324436
199.306641	155.021500
197.970703	104.856880
196.636719	231.499069
195.300781	210.143967
193.964844	136.428436
192.630859	454.142151
191.294922	228.812912
189.957031	367.941864
188.621094	279.697632
187.285156	321.267853
185.947266	434.984528
184.611328	597.218262
183.273438	-33.430958
181.935547	478.396271
180.597656	172.198380
179.259766	10.176981
177.921875	426.238983
176.582031	271.490509
175.244141	219.313614
173.904297	271.619202
172.566406	377.807373
171.226563	295.131042
169.886719	144.133041
168.546875	110.102203
167.205078	-1.143452
165.865234	324.467163
164.525391	243.736801
163.183594	35.538673
161.841797	32.293728
160.501953	3.850743
159.160156	280.909454
157.818359	263.373779
156.476563	253.079117
155.132813	-101.777626
153.791016	83.772392
152.447266	294.531982
151.105469	-137.182251
149.761719	152.636353
148.417969	-38.284946
147.074219	0.513812
145.730469	-197.290390
144.386719	-360.854309
143.041016	286.043365
141.697266	233.807159
140.351563	-74.427910
139.005859	-72.478714
137.660156	-236.963684
136.314453	-112.899422
134.968750	-90.773018
133.623047	-39.832993
132.277344	-205.310043
130.929688	-270.228699
129.583984	-37.974766
128.236328	-208.026184
126.888672	-361.691437
125.541016	-84.067024
124.193359	-117.411186
122.845703	-209.476074
121.496094	-227.863937
120.148438	-44.103596
118.798828	9.544738
117.451172	-79.521004
116.101563	-30.607586
114.751953	-234.959366
113.402344	-112.136818
112.052734	-103.243011
110.701172	300.579224
109.351563	385.126526
108.000000	261.393066
106.650391	-200.910034
105.298828	-419.939880
103.947266	-290.686218
