#Wave		#Intensity
3204.375000	317.290924
3203.544922	-60.887058
3202.713867	-199.458603
3201.882813	-240.094543
3201.051758	269.595978
3200.220703	450.745941
3199.389648	402.093719
3198.558594	236.811218
3197.726563	97.023682
3196.895508	625.952393
3196.063477	351.514954
3195.231445	79.394501
3194.399414	296.196320
3193.567383	659.970947
3192.734375	400.490936
3191.902344	415.443817
3191.069336	253.233490
3190.237305	559.253601
3189.404297	835.658813
3188.571289	437.259369
3187.738281	478.070160
3186.905273	677.344543
3186.071289	476.938599
3185.238281	750.148926
3184.404297	473.472839
3183.570313	1144.353516
3182.736328	823.219727
3181.902344	767.457153
3181.068359	578.268066
3180.233398	1119.417603
3179.399414	804.965332
3178.564453	620.055237
3177.729492	1046.744141
3176.895508	1126.345093
3176.060547	1078.451416
3175.224609	1044.517090
3174.389648	652.300171
3173.554688	1257.843628
3172.718750	977.246582
3171.882813	872.167542
3171.046875	1429.827515
3170.210938	908.623535
3169.375000	989.557800
3168.539063	1107.468384
3167.702148	1034.732300
3166.866211	1166.101685
3166.029297	1167.385986
3165.192383	1029.982422
3164.355469	1540.119263
3163.518555	1013.154053
3162.681641	1245.924683
3161.843750	1273.866699
3161.006836	944.528198
3160.168945	1319.855957
3159.331055	863.249939
3158.493164	1240.555908
3157.655273	1065.173706
3156.817383	1067.741821
3155.979492	1271.187622
3155.140625	1448.341064
3154.302734	1277.288574
3153.463867	1637.566895
3152.625000	1158.407593
3151.786133	1425.956787
3150.947266	1592.543701
3150.107422	1382.546631
3149.268555	1229.697021
3148.428711	1444.042480
3147.588867	1307.808960
3146.749023	999.102844
3145.909180	902.519287
3145.069336	1215.918579
3144.229492	1425.645508
3143.388672	886.442139
3142.548828	1324.963745
3141.708008	1195.364746
3140.867188	1157.252808
3140.026367	1199.120728
3139.185547	1140.399292
3138.344727	1118.667236
3137.502930	1729.808472
3136.662109	1240.560913
3135.820313	1332.589722
3134.978516	1513.098389
3134.136719	1355.466309
3133.294922	1223.397095
3132.453125	890.782043
3131.611328	1356.418335
3130.768555	891.808594
3129.925781	1422.630127
3129.083984	1492.550049
3128.241211	1241.942871
3127.397461	1219.940918
3126.554688	1354.960327
3125.711914	840.877563
3124.868164	1672.829712
3124.025391	1447.054443
3123.181641	1409.712402
3122.337891	949.424438
3121.494141	963.198547
3120.650391	1259.487793
3119.805664	1446.998047
3118.961914	1237.469727
3118.117188	1002.142456
3117.272461	1254.712524
3116.428711	885.009827
3115.583008	988.837036
3114.738281	792.965393
3113.893555	1213.013794
3113.047852	1398.952026
3112.203125	558.319946
3111.357422	1088.916504
3110.511719	1120.435547
3109.666016	1205.946777
3108.820313	1049.114014
3107.974609	949.171021
3107.127930	572.851929
3106.282227	911.315918
3105.435547	665.847717
3104.588867	924.227905
3103.742188	587.510559
3102.895508	822.820007
3102.048828	608.358765
3101.201172	868.972900
3100.354492	807.963989
3099.506836	772.470276
3098.659180	1049.687012
3097.811523	1102.105469
3096.963867	1111.775757
3096.116211	1121.349365
3095.267578	894.960388
3094.419922	921.443054
3093.571289	561.476746
3092.722656	1209.894165
3091.874023	716.362183
3091.025391	1066.250854
3090.176758	916.281799
3089.328125	329.149261
3088.478516	721.299072
3087.628906	690.443054
3086.780273	878.008301
3085.930664	798.793518
3085.081055	413.237366
3084.230469	433.269623
3083.380859	685.757263
3082.530273	11.088391
3081.680664	563.923157
3080.830078	495.887756
3079.979492	541.178650
3079.128906	580.751526
3078.278320	793.065857
3077.426758	-204.058441
3076.576172	404.695313
3075.724609	636.667480
3074.873047	469.394623
3074.022461	525.756958
3073.169922	299.083923
3072.318359	344.093689
3071.466797	-94.679276
3070.614258	253.002548
3069.762695	309.276306
3068.910156	789.657654
3068.057617	305.819824
3067.205078	144.378159
3066.352539	576.498901
3065.500000	595.914612
3064.646484	205.647781
3063.793945	479.362762
3062.940430	109.024307
3062.086914	261.242889
3061.233398	142.372101
3060.379883	523.226379
3059.525391	630.179749
3058.671875	-47.435791
3057.817383	93.469582
3056.963867	242.813721
3056.109375	-16.879982
3055.254883	214.268234
3054.399414	-39.652786
3053.544922	563.637817
3052.690430	371.818665
3051.834961	430.935669
3050.979492	459.067596
3050.125000	371.706970
3049.268555	-160.699188
3048.413086	-53.512497
3047.557617	177.594208
3046.702148	-27.775887
3045.845703	121.688942
3044.989258	23.445866
3044.132813	217.973022
3043.276367	347.768036
3042.419922	41.476944
3041.563477	357.015320
3040.707031	444.685455
3039.849609	200.549316
3038.992188	226.465912
3038.134766	466.081177
3037.277344	129.474670
3036.419922	270.788391
3035.562500	-0.933332
3034.705078	320.275696
3033.846680	90.895790
3032.988281	235.179901
3032.129883	-198.972260
3031.271484	-194.934418
3030.413086	390.247803
3029.554688	189.442856
3028.696289	533.179260
3027.836914	152.992508
3026.977539	235.873108
3026.119141	52.346405
3025.259766	1013.146362
3024.399414	428.739258
3023.540039	15.611742
3022.680664	482.854126
3021.820313	585.689819
3020.959961	439.182953
3020.100586	561.768188
3019.240234	580.750916
3018.378906	644.628662
3017.518555	378.128784
3016.658203	470.189758
3015.796875	273.969269
3014.936523	637.694092
3014.075195	617.994934
3013.213867	296.200470
3012.352539	494.960052
3011.490234	755.287170
3010.628906	730.360657
3009.766602	892.882568
3008.905273	787.054688
3008.042969	1282.356689
3007.180664	681.995422
3006.318359	839.221619
3005.455078	485.197906
3004.592773	1184.554565
3003.730469	654.825134
3002.867188	764.883606
3002.003906	760.529602
3001.140625	1004.748169
3000.277344	1053.598633
2999.414063	575.069946
2998.549805	989.727966
2997.686523	857.528992
2996.822266	859.377563
2995.958008	643.787292
2995.093750	1114.368164
2994.229492	1152.745850
2993.365234	1115.951904
2992.500000	1006.815002
2991.635742	1374.359741
2990.770508	1048.109619
2989.905273	1056.377930
2989.040039	822.427002
2988.174805	897.792480
2987.309570	680.877136
2986.443359	1329.994507
2985.578125	1333.214478
2984.711914	927.425354
2983.845703	1615.494263
2982.979492	1574.503662
2982.113281	1408.457764
2981.247070	1465.095459
2980.380859	1382.784180
2979.513672	1245.018066
2978.646484	1485.495483
2977.779297	1834.415894
2976.912109	1655.311035
2976.044922	1768.145874
2975.177734	1717.147461
2974.310547	1335.734009
2973.442383	1285.072388
2972.574219	1470.582520
2971.706055	2350.260742
2970.837891	1553.088013
2969.969727	1588.951050
2969.101563	2010.666504
2968.233398	1622.172241
2967.364258	1774.901489
2966.495117	1522.738159
2965.625977	1437.182251
2964.756836	1800.972412
2963.887695	1502.171265
2963.018555	2085.067871
2962.149414	2124.690186
2961.279297	1588.057861
2960.409180	1616.921143
2959.539063	1571.112061
2958.668945	1661.154175
2957.798828	1834.375854
2956.928711	1420.679321
2956.057617	2217.019287
2955.187500	1640.342529
2954.316406	2165.437012
2953.445313	2043.004517
2952.574219	2371.689697
2951.703125	2260.586426
2950.832031	1798.405640
2949.959961	2249.032471
2949.088867	1906.142090
2948.216797	2450.848877
2947.344727	2053.025146
2946.472656	2083.788086
2945.600586	1763.770874
2944.728516	2068.316895
2943.855469	1599.523438
2942.982422	1735.805298
2942.110352	2070.967285
2941.237305	1967.199951
2940.364258	1982.285278
2939.491211	2005.777466
2938.617188	1764.497314
2937.744141	1942.772217
2936.870117	1892.177246
2935.996094	2145.110107
2935.122070	2047.871948
2934.248047	2466.384033
2933.374023	2223.275391
2932.500000	2294.588867
2931.625000	1969.181030
2930.750977	1643.990601
2929.875977	2140.020264
2929.000977	2366.073242
2928.125977	1914.688477
2927.250977	1975.748291
2926.375000	2042.430908
2925.500000	1767.872192
2924.624023	2255.920166
2923.748047	1923.896973
2922.872070	1897.505371
2921.996094	2085.827148
2921.120117	1996.412598
2920.244141	2019.906494
2919.367188	1485.362305
2918.490234	1583.425415
2917.614258	1854.732544
2916.737305	2021.661499
2915.860352	1878.157837
2914.982422	1899.682251
2914.105469	2201.500244
2913.227539	1720.607544
2912.350586	1574.999756
2911.472656	1380.157837
2910.594727	1745.514526
2909.716797	1844.639893
2908.837891	1710.609131
2907.959961	1812.700806
2907.081055	1591.178955
2906.203125	1276.575562
2905.324219	1466.830811
2904.445313	1402.138062
2903.566406	1609.005127
2902.686523	2024.273315
2901.807617	1422.711792
2900.927734	1643.558838
2900.048828	1743.883789
2899.168945	1553.944824
2898.289063	1783.243408
2897.409180	1254.025024
2896.528320	1311.061890
2895.648438	1275.097778
2894.767578	1411.728149
2893.886719	1562.113770
2893.006836	1430.719727
2892.125000	1392.536011
2891.244141	985.192749
2890.363281	1365.755493
2889.481445	1215.844727
2888.600586	1385.960449
2887.718750	1293.730957
2886.836914	1289.109131
2885.955078	1429.442139
2885.073242	1318.471680
2884.190430	863.463745
2883.308594	848.447754
2882.425781	822.651367
2881.542969	1050.913208
2880.661133	1421.157593
2879.777344	1100.840576
2878.894531	1031.805786
2878.011719	1022.936768
2877.127930	918.715271
2876.245117	940.098389
2875.361328	1062.518921
2874.477539	904.134827
2873.593750	767.722900
2872.708984	969.523193
2871.825195	795.202759
2870.940430	874.519592
2870.056641	1019.288574
2869.171875	951.643311
2868.287109	777.897156
2867.402344	587.971497
2866.516602	967.345398
2865.631836	178.703751
2864.746094	585.454651
2863.861328	665.555908
2862.975586	805.623047
2862.089844	654.628845
2861.204102	1036.971191
2860.317383	788.301880
2859.431641	523.476074
2858.544922	718.375916
2857.658203	1035.653442
2856.771484	314.596954
2855.884766	496.151398
2854.998047	832.632568
2854.111328	351.340698
2853.223633	546.709595
2852.336914	530.245117
2851.449219	342.834961
2850.561523	171.872437
2849.673828	600.993652
2848.786133	517.092590
2847.897461	598.880981
2847.009766	192.316605
2846.121094	293.311798
2845.232422	171.950607
2844.343750	430.400421
2843.455078	217.051285
2842.566406	63.512009
2841.676758	235.420746
2840.788086	537.429199
2839.898438	218.915985
2839.008789	724.241699
2838.119141	470.999573
2837.229492	131.259308
2836.339844	181.672638
2835.449219	467.745575
2834.559570	-193.711349
2833.668945	38.377071
2832.778320	416.613007
2831.887695	121.062263
2830.997070	101.642227
2830.105469	236.527374
2829.214844	87.452972
2828.323242	211.647568
2827.432617	6.017975
2826.541016	-83.195213
2825.649414	197.980591
2824.756836	90.040672
2823.865234	-28.616648
2822.972656	204.062393
2822.081055	-351.977325
2821.188477	213.009644
2820.295898	16.456364
2819.403320	278.995026
2818.510742	25.968769
2817.617188	2.533678
2816.724609	124.864113
2815.831055	365.972137
2814.937500	-78.088593
2814.043945	268.310181
2813.150391	53.777260
2812.256836	-33.891129
2811.362305	43.008511
2810.467773	33.713017
2809.574219	105.306602
2808.679688	101.536896
2807.785156	442.671783
2806.890625	29.569996
2805.995117	-213.630951
2805.100586	480.342957
2804.205078	-513.849792
2803.309570	266.253632
2802.414063	238.761978
2801.518555	-141.169128
2800.623047	79.076912
2799.727539	62.589302
2798.831055	-80.208771
2797.934570	145.527939
2797.039063	-37.468857
2796.142578	-88.582466
2795.245117	231.342926
2794.348633	234.079773
2793.452148	-365.014954
2792.554688	27.529198
2791.657227	197.053162
2790.760742	197.354614
2789.863281	95.707367
2788.964844	55.935169
2788.067383	241.692474
2787.169922	-259.643799
2786.271484	103.365952
2785.373047	206.058334
2784.474609	48.553837
2783.576172	105.734650
2782.677734	471.357971
2781.779297	222.891937
2780.879883	433.022583
2779.980469	302.722931
2779.082031	-1.713947
2778.182617	331.776215
2777.282227	158.880447
2776.382813	414.658081
2775.483398	373.111725
2774.583008	58.517609
2773.682617	456.274139
2772.783203	224.826492
2771.882813	344.165314
2770.981445	249.450287
2770.081055	2.271402
2769.180664	284.920624
2768.279297	428.467438
2767.377930	582.708435
2766.476563	354.568817
2765.575195	450.044006
2764.673828	334.360046
2763.772461	542.149048
2762.870117	782.012146
2761.967773	276.413513
2761.066406	559.036133
2760.164063	387.582611
2759.261719	485.946899
2758.358398	557.651978
2757.456055	586.622742
2756.552734	645.023071
2755.650391	663.375305
2754.747070	865.906006
2753.843750	204.016586
2752.940430	726.726074
2752.036133	915.956177
2751.132813	1030.467163
2750.228516	755.747681
2749.324219	992.968567
2748.419922	920.976868
2747.515625	894.342346
2746.611328	1104.884766
2745.707031	918.455017
2744.801758	708.182190
2743.897461	1094.513550
2742.992188	1171.906982
2742.086914	1038.994141
2741.181641	922.121887
2740.275391	1138.020996
2739.370117	1297.966919
2738.463867	1048.202515
2737.558594	1024.624268
2736.652344	1197.924561
2735.746094	969.652954
2734.839844	938.230591
2733.932617	1340.189209
2733.026367	1122.713745
2732.119141	1298.672974
2731.211914	1291.264404
2730.304688	1398.116455
2729.397461	1133.088135
2728.490234	1354.170776
2727.583008	1171.594482
2726.674805	1236.035522
2725.767578	1372.116211
2724.859375	993.322571
2723.951172	1344.410767
2723.042969	1207.220215
2722.133789	1430.899658
2721.225586	1460.876465
2720.316406	1395.421387
2719.407227	1213.337891
2718.499023	1460.768555
2717.588867	1199.282715
2716.679688	842.458618
2715.770508	1545.660034
2714.860352	1567.805664
2713.951172	1070.750000
2713.041016	1442.590454
2712.130859	1406.526855
2711.220703	1550.525146
2710.310547	1318.590820
2709.399414	1486.433594
2708.489258	1603.915649
2707.578125	1509.736328
2706.666992	1674.850830
2705.755859	1612.450073
2704.844727	1383.469238
2703.933594	1633.159546
2703.021484	1005.099976
2702.109375	1474.212524
2701.198242	1594.288818
2700.286133	1386.705322
2699.374023	1657.396118
2698.460938	1785.393066
2697.548828	1400.939575
2696.635742	1745.482666
2695.723633	1469.419922
2694.810547	1607.938843
2693.897461	1421.768188
2692.984375	1834.710205
2692.071289	1287.084717
2691.157227	1449.327881
2690.243164	1677.461670
2689.330078	1441.330078
2688.416016	1492.722046
2687.501953	1781.374268
2686.587891	1339.766846
2685.672852	1346.376709
2684.758789	1492.611572
2683.843750	1601.941772
2682.928711	1655.916748
2682.013672	1630.854248
2681.098633	1534.695190
2680.183594	1464.892456
2679.267578	1597.846680
2678.352539	993.727661
2677.436523	1921.476074
2676.520508	1501.709839
2675.604492	1597.717407
2674.688477	1785.750488
2673.772461	1821.177612
2672.855469	1885.542358
2671.938477	1736.919312
2671.022461	2053.583008
2670.105469	1773.549927
2669.187500	1417.423218
2668.270508	1857.476318
2667.353516	1648.510498
2666.435547	1397.609985
2665.517578	1619.482422
2664.600586	2103.810547
2663.682617	1104.720093
2662.763672	1848.874878
2661.845703	1619.079712
2660.927734	1578.276367
2660.008789	1532.255859
2659.089844	2231.210693
2658.170898	1487.429565
2657.251953	1055.927490
2656.333008	1460.923096
2655.413086	1336.275513
2654.494141	1122.505249
2653.574219	1383.145752
2652.654297	1575.561646
2651.734375	1684.064819
2650.814453	1585.590576
2649.894531	1199.054443
2648.973633	1412.282715
2648.053711	1489.254639
2647.132813	1299.218628
2646.211914	1190.355591
2645.291016	1450.471924
2644.370117	1331.115967
2643.448242	1771.609619
2642.527344	1722.815796
2641.605469	1394.240112
2640.683594	1447.481689
2639.761719	1477.155396
2638.839844	1478.048096
2637.917969	1133.956177
2636.995117	1552.953491
2636.072266	997.334656
2635.150391	1617.269531
2634.227539	1273.315796
2633.304688	1650.143433
2632.380859	1703.114990
2631.458008	1395.787354
2630.534180	1177.300171
2629.611328	1102.351196
2628.687500	1095.267212
2627.763672	1111.636475
2626.839844	1380.972168
2625.915039	1084.329956
2624.991211	1846.322144
2624.066406	1476.650269
2623.141602	1375.543091
2622.216797	1321.350098
2621.291992	732.980896
2620.367188	1004.509521
2619.442383	999.808777
2618.516602	1383.166382
2617.590820	1029.440430
2616.665039	871.066101
2615.739258	1522.289185
2614.813477	1345.605591
2613.887695	929.538391
2612.960938	1041.783325
2612.035156	969.225403
2611.108398	1094.367676
2610.181641	748.730652
2609.254883	733.392212
2608.328125	998.799194
2607.400391	858.621948
2606.473633	1069.278931
2605.545898	684.809998
2604.618164	856.417419
2603.690430	937.015137
2602.762695	973.399658
2601.834961	864.318787
2600.906250	700.743164
2599.977539	929.170288
2599.049805	807.064758
2598.121094	949.690125
2597.191406	793.876160
2596.262695	744.409607
2595.333984	946.522766
2594.404297	868.474976
2593.474609	741.148926
2592.545898	831.571899
2591.615234	1074.920654
2590.685547	512.102051
2589.755859	677.578430
2588.825195	545.042480
2587.895508	855.446045
2586.964844	515.645325
2586.034180	929.484375
2585.103516	475.779297
2584.171875	690.107361
2583.241211	1051.829102
2582.309570	481.776703
2581.378906	403.463409
2580.447266	715.807190
2579.515625	738.304810
2578.583008	690.954956
2577.651367	509.087616
2576.719727	466.848083
2575.787109	391.004517
2574.854492	539.997253
2573.921875	417.568298
2572.989258	388.147156
2572.055664	686.796692
2571.123047	569.439392
2570.189453	588.972595
2569.256836	549.041687
2568.323242	367.121918
2567.389648	394.290833
2566.455078	351.753540
2565.521484	528.483948
2564.586914	140.144455
2563.653320	628.879089
2562.718750	116.765991
2561.784180	-8.433375
2560.849609	28.792542
2559.914063	267.052826
2558.979492	353.099487
2558.043945	330.867584
2557.108398	-72.730797
2556.172852	98.228058
2555.237305	-39.998203
2554.301758	388.334412
2553.365234	587.344360
2552.429688	402.626312
2551.493164	148.448456
2550.556641	445.055389
2549.620117	111.089539
2548.683594	314.890625
2547.746094	235.649002
2546.809570	122.920990
2545.872070	2.495622
2544.934570	236.867813
2543.997070	393.996399
2543.059570	-150.649933
2542.122070	358.455994
2541.183594	299.537354
2540.246094	-67.713905
2539.307617	119.939636
2538.369141	243.276520
2537.430664	343.415771
2536.492188	320.242035
2535.552734	214.911804
2534.614258	-49.579620
2533.674805	86.291641
2532.735352	-101.199425
2531.795898	55.056465
2530.856445	231.729141
2529.916016	-25.056555
2528.976563	269.410278
2528.036133	-18.163578
2527.095703	142.848785
2526.155273	-19.140610
2525.214844	228.834961
2524.274414	-299.564453
2523.333984	219.784164
2522.392578	324.052032
2521.451172	144.007050
2520.509766	127.821068
2519.568359	157.663910
2518.626953	253.986679
2517.684570	337.456421
2516.743164	42.164566
2515.800781	12.980365
2514.858398	219.058914
2513.916016	-14.828382
2512.973633	390.515686
2512.031250	297.171173
2511.087891	438.982391
2510.145508	243.334641
2509.202148	328.787720
2508.258789	380.948334
2507.315430	241.464859
2506.371094	-25.699476
2505.427734	350.626373
2504.483398	379.581665
2503.539063	94.498032
2502.595703	174.398773
2501.650391	287.442383
2500.706055	254.939056
2499.761719	217.293137
2498.816406	414.279846
2497.871094	167.420654
2496.926758	229.082977
2495.981445	112.242889
2495.035156	229.909943
2494.089844	495.272308
2493.144531	332.415588
2492.198242	192.511078
2491.251953	709.785706
2490.305664	315.073517
2489.359375	17.198664
2488.413086	55.438477
2487.465820	312.553772
2486.518555	231.021866
2485.572266	337.751953
2484.625000	368.083893
2483.677734	202.469757
2482.729492	90.291145
2481.782227	255.267227
2480.833984	170.975571
2479.886719	373.907104
2478.938477	185.297318
2477.990234	-41.426647
2477.041992	105.395378
2476.092773	333.435547
2475.144531	88.851448
2474.195313	-193.784149
2473.246094	463.176910
2472.296875	-60.736076
2471.347656	217.637070
2470.398438	89.769028
2469.448242	93.868629
2468.499023	-11.212312
2467.548828	210.959457
2466.598633	379.737610
2465.648438	89.385864
2464.697266	263.110779
2463.747070	226.280441
2462.795898	148.872391
2461.845703	46.069416
2460.894531	-125.153137
2459.943359	314.207306
2458.991211	284.763184
2458.040039	-187.972107
2457.088867	10.447958
2456.136719	122.684471
2455.184570	34.843853
2454.232422	-27.714495
2453.280273	-234.553040
2452.327148	11.549647
2451.375000	363.748444
2450.421875	118.859100
2449.468750	253.339996
2448.515625	-21.904539
2447.562500	-117.616646
2446.609375	-21.245491
2445.655273	221.644745
2444.702148	95.448105
2443.748047	151.167007
2442.793945	-23.062027
2441.839844	27.495443
2440.885742	62.827747
2439.930664	146.085175
2438.976563	-56.021034
2438.021484	163.415054
2437.066406	-16.006731
2436.111328	-3.661348
2435.156250	260.900482
2434.200195	192.387299
2433.245117	-118.283844
2432.289063	-70.832756
2431.333008	248.831009
2430.376953	91.916496
2429.420898	166.869080
2428.464844	176.222046
2427.507813	-91.605598
2426.551758	-160.412704
2425.594727	103.226578
2424.637695	-242.688690
2423.680664	-223.461182
2422.722656	193.474335
2421.765625	-24.084692
2420.807617	10.050644
2419.849609	-114.399574
2418.892578	105.777176
2417.933594	-51.441120
2416.975586	67.965759
2416.017578	66.578407
2415.058594	-379.843109
2414.099609	-112.279503
2413.140625	62.148205
2412.181641	-150.520828
2411.222656	-204.886139
2410.263672	112.495728
2409.304688	-135.404434
2408.343750	490.670807
2407.384766	207.530945
2406.423828	29.903551
2405.464844	12.883709
2404.503906	73.647766
2403.542969	-146.692184
2402.582031	-18.292276
2401.621094	-50.525482
2400.660156	-25.118263
2399.699219	386.386505
2398.738281	399.070953
2397.777344	43.208622
2396.816406	-1.809776
2395.853516	303.992371
2394.892578	113.521416
2393.929688	78.408089
2392.968750	313.723236
2392.005859	250.933090
2391.042969	115.498978
2390.080078	72.684669
2389.117188	262.609406
2388.154297	582.556519
2387.191406	129.164749
2386.228516	6.106093
2385.263672	380.840271
2384.300781	25.082836
2383.337891	-20.540379
2382.373047	303.851868
2381.408203	128.138107
2380.445313	-32.607403
2379.480469	316.459412
2378.515625	450.486969
2377.550781	244.676529
2376.585938	236.198120
2375.621094	472.405396
2374.656250	74.276955
2373.691406	-81.616745
2372.724609	286.690338
2371.759766	140.692108
2370.792969	149.423965
2369.828125	252.876389
2368.861328	119.301086
2367.894531	187.734436
2366.927734	213.701950
2365.962891	361.748383
2364.996094	33.599133
2364.027344	106.810661
2363.060547	242.216812
2362.093750	270.390167
2361.126953	517.723389
2360.158203	114.870598
2359.191406	212.627411
2358.222656	88.727486
2357.255859	7.109543
2356.287109	10.127864
2355.318359	132.550751
2354.349609	259.860748
2353.380859	202.974030
2352.412109	257.994202
2351.443359	206.001480
2350.474609	449.888580
2349.505859	101.917351
2348.535156	221.375290
2347.566406	-34.581848
2346.595703	261.198822
2345.626953	87.211365
2344.656250	576.545776
2343.685547	181.434494
2342.714844	260.733185
2341.744141	114.002510
2340.773438	173.326584
2339.802734	433.641083
2338.832031	358.780121
2337.861328	-53.570587
2336.888672	213.974762
2335.917969	-74.286827
2334.945313	14.505911
2333.974609	-18.310556
2333.001953	191.835587
2332.029297	181.240616
2331.056641	477.935913
2330.085938	561.343262
2329.113281	30.230963
2328.138672	7.118334
2327.166016	466.931183
2326.193359	69.683426
2325.220703	-22.923615
2324.246094	-152.655823
2323.273438	-67.070969
2322.298828	70.435669
2321.324219	-69.289665
2320.351563	28.468801
2319.376953	86.596436
2318.402344	33.361660
2317.427734	-217.729523
2316.453125	38.063244
2315.478516	-30.107534
2314.503906	-130.433136
2313.527344	-40.467625
2312.552734	195.178726
2311.576172	70.045959
2310.601563	-57.583214
2309.625000	-24.671108
2308.648438	-258.483459
2307.673828	-154.068848
2306.697266	118.139130
2305.720703	303.834015
2304.744141	-83.050453
2303.767578	218.481964
2302.789063	-227.528198
2301.812500	31.912527
2300.835938	249.301819
2299.857422	-206.489990
2298.880859	175.943253
2297.902344	267.390808
2296.923828	26.082260
2295.945313	114.972801
2294.968750	-57.361828
2293.990234	193.989944
2293.011719	-42.398190
2292.031250	-98.980858
2291.052734	154.585114
2290.074219	48.649895
2289.095703	-143.432861
2288.115234	-318.248993
2287.136719	-79.745598
2286.156250	-8.614145
2285.175781	-203.168884
2284.195313	37.549316
2283.216797	-304.576080
2282.236328	-64.004822
2281.255859	114.999969
2280.273438	252.146652
2279.292969	-119.420578
2278.312500	-144.522583
2277.332031	-211.413116
2276.349609	117.084564
2275.369141	-75.136589
2274.386719	341.528656
2273.404297	33.903820
2272.423828	-128.880554
2271.441406	54.352505
2270.458984	53.479530
2269.476563	265.977234
2268.494141	31.992233
2267.509766	-47.449871
2266.527344	211.422363
2265.544922	-54.427876
2264.560547	64.593086
2263.578125	-286.996704
2262.593750	179.868835
2261.611328	87.971748
2260.626953	375.737122
2259.642578	-103.156769
2258.658203	8.169124
2257.673828	55.767677
2256.689453	-190.419556
2255.705078	219.328278
2254.718750	151.762253
2253.734375	-136.027634
2252.750000	9.207845
2251.763672	386.721436
2250.779297	179.615387
2249.792969	-125.239754
2248.806641	168.878143
2247.820313	333.324707
2246.833984	253.303177
2245.847656	168.384033
2244.861328	452.336945
2243.875000	-21.025415
2242.888672	82.074409
2241.900391	224.187225
2240.914063	229.483292
2239.925781	54.130375
2238.939453	386.410370
2237.951172	237.855957
2236.962891	-57.069515
2235.976563	252.999908
2234.988281	-12.635951
2234.000000	4.646616
2233.011719	7.257909
2232.021484	-148.603607
2231.033203	297.552216
2230.044922	68.498131
2229.054688	275.637451
2228.066406	146.472519
2227.076172	22.202291
2226.087891	31.862608
2225.097656	4.978333
2224.107422	90.052834
2223.117188	-29.398123
2222.126953	101.824829
2221.136719	-105.258644
2220.146484	-144.439407
2219.154297	-6.051219
2218.164063	584.610901
2217.173828	355.560883
2216.181641	70.646469
2215.191406	89.639412
2214.199219	-27.499502
2213.207031	1.171383
2212.214844	236.322128
2211.222656	26.800547
2210.230469	196.223953
2209.238281	110.565140
2208.246094	100.171913
2207.253906	-94.756371
2206.259766	-63.898129
2205.267578	267.836243
2204.273438	43.773293
2203.281250	130.280243
2202.287109	243.421661
2201.292969	-17.002535
2200.300781	108.171127
2199.306641	160.551727
2198.312500	128.037064
2197.318359	49.453426
2196.322266	48.420567
2195.328125	250.869263
2194.333984	97.108765
2193.337891	-151.079254
2192.343750	97.218796
2191.347656	214.665634
2190.351563	186.788467
2189.357422	66.896004
2188.361328	92.232628
2187.365234	-163.156693
2186.369141	133.112946
2185.373047	-100.491539
2184.376953	113.377670
2183.378906	34.567970
2182.382813	33.105572
2181.384766	-84.404724
2180.388672	250.045944
2179.390625	-53.592155
2178.394531	106.721336
2177.396484	-293.483490
2176.398438	137.288254
2175.400391	10.038651
2174.402344	249.810806
2173.404297	223.919296
2172.406250	-7.159191
2171.406250	201.048996
2170.408203	-85.508560
2169.408203	351.779297
2168.410156	246.145523
2167.410156	299.706909
2166.412109	3.563840
2165.412109	517.582886
2164.412109	-5.134938
2163.412109	-48.087498
2162.412109	106.545631
2161.412109	470.715759
2160.412109	290.311646
2159.410156	-24.932014
2158.410156	1.851717
2157.408203	74.358528
2156.408203	50.506374
2155.406250	9.799313
2154.404297	-74.243034
2153.404297	214.664780
2152.402344	-153.319199
2151.400391	431.326752
2150.398438	217.294144
2149.396484	250.979614
2148.392578	-179.375015
2147.390625	109.114090
2146.388672	443.147797
2145.384766	332.497101
2144.382813	-73.676544
2143.378906	284.176483
2142.375000	452.140900
2141.371094	242.998077
2140.367188	-4.517476
2139.363281	148.930283
2138.359375	170.288757
2137.355469	258.808044
2136.351563	-48.634766
2135.347656	332.526855
2134.341797	514.459778
2133.337891	499.639130
2132.332031	65.181732
2131.326172	172.670929
2130.322266	320.840637
2129.316406	265.229279
2128.310547	188.045334
2127.304688	-205.396622
2126.298828	541.524597
2125.292969	-21.946724
2124.285156	602.529602
2123.279297	422.275452
2122.271484	356.974915
2121.265625	325.172729
2120.257813	331.656372
2119.251953	60.548805
2118.244141	136.402985
2117.236328	358.119324
2116.228516	216.223358
2115.220703	210.644867
2114.212891	300.676941
2113.205078	510.173187
2112.195313	382.602203
2111.187500	128.394302
2110.179688	239.791565
2109.169922	90.760429
2108.160156	419.434174
2107.152344	2.913081
2106.142578	255.043854
2105.132813	416.354462
2104.123047	200.475876
2103.113281	194.648407
2102.103516	121.993294
2101.093750	-31.770622
2100.082031	212.836380
2099.072266	171.152023
2098.060547	-139.973785
2097.050781	-17.130898
2096.039063	165.251144
2095.027344	323.718292
2094.017578	15.060841
2093.005859	128.190781
2091.994141	-46.968857
2090.982422	-22.031233
2089.968750	174.340363
2088.957031	15.863405
2087.945313	274.005493
2086.931641	151.232147
2085.919922	83.204422
2084.906250	38.980125
2083.894531	-262.183807
2082.880859	281.121826
2081.867188	75.111519
2080.853516	99.791214
2079.839844	269.461792
2078.826172	65.873383
2077.812500	344.776062
2076.796875	260.017731
2075.783203	-76.571754
2074.769531	135.644608
2073.753906	88.905243
2072.738281	-7.703943
2071.724609	230.453934
2070.708984	214.523438
2069.693359	336.239075
2068.677734	222.962219
2067.662109	133.431305
2066.646484	39.167885
2065.630859	108.574417
2064.613281	166.088181
2063.597656	173.764542
2062.580078	55.782619
2061.564453	350.242889
2060.546875	-59.265575
2059.529297	59.744083
2058.511719	228.447723
2057.496094	96.240555
2056.478516	32.748508
2055.458984	45.041893
2054.441406	152.006805
2053.423828	-93.786934
2052.406250	256.906830
2051.386719	77.407776
2050.369141	186.592468
2049.349609	-134.808136
2048.330078	16.919704
2047.312500	-115.201500
2046.292969	38.803097
2045.273438	244.748932
2044.253906	-15.026027
2043.234375	-57.314640
2042.212891	-26.350338
2041.193359	174.677719
2040.173828	63.827152
2039.152344	175.003113
2038.132813	90.129929
2037.111328	97.351738
2036.089844	328.802643
2035.068359	73.976891
2034.048828	491.735291
2033.027344	225.135773
2032.005859	-1.288957
2030.982422	74.246834
2029.960938	-41.275394
2028.939453	-41.245628
2027.916016	41.283894
2026.894531	331.181549
2025.871094	-3.530312
2024.849609	328.657440
2023.826172	220.186996
2022.802734	69.339294
2021.779297	257.651581
2020.755859	118.588737
2019.732422	-8.671379
2018.708984	379.595917
2017.683594	-48.935352
2016.660156	-46.730194
2015.634766	275.436279
2014.611328	39.972225
2013.585938	143.258667
2012.562500	342.901123
2011.537109	53.428959
2010.511719	384.641083
2009.486328	325.566864
2008.460938	94.946648
2007.435547	317.862518
2006.408203	99.044868
2005.382813	28.255842
2004.357422	124.214111
2003.330078	147.341339
2002.302734	391.128082
2001.277344	454.074768
2000.250000	279.958160
1999.222656	-74.793587
1998.195313	447.997314
1997.167969	651.586792
1996.140625	517.367615
1995.113281	188.552582
1994.085938	272.470032
1993.056641	192.262024
1992.029297	245.658249
1991.000000	242.786560
1989.970703	45.432735
1988.943359	314.306519
1987.914063	325.437927
1986.884766	200.728088
1985.855469	-38.682308
1984.826172	274.458771
1983.796875	411.934631
1982.767578	36.833241
1981.736328	150.884308
1980.707031	379.515320
1979.675781	175.328186
1978.646484	88.127472
1977.615234	115.528671
1976.583984	271.493652
1975.552734	48.710018
1974.521484	111.123146
1973.490234	131.442108
1972.458984	259.217773
1971.427734	62.233387
1970.396484	210.973434
1969.363281	21.048227
1968.332031	328.493195
1967.298828	262.316010
1966.267578	98.112717
1965.234375	225.668213
1964.201172	110.507156
1963.167969	-4.626229
1962.134766	-21.767025
1961.101563	0.733286
1960.068359	202.759552
1959.035156	99.298157
1958.000000	51.810764
1956.966797	-32.967495
1955.931641	-101.412277
1954.898438	49.153061
1953.863281	-126.455826
1952.828125	45.008621
1951.792969	179.146072
1950.757813	78.075768
1949.722656	11.946208
1948.687500	106.425438
1947.652344	-122.605598
1946.615234	-318.992126
1945.580078	203.511200
1944.542969	-160.352585
1943.507813	-91.552872
1942.470703	-4.182646
1941.433594	29.679689
1940.398438	-185.194595
1939.361328	-72.314590
1938.324219	-331.266479
1937.287109	-255.591156
1936.248047	135.961624
1935.210938	-41.633892
1934.173828	-51.990665
1933.134766	-210.938538
1932.097656	168.699966
1931.058594	339.323639
1930.019531	263.903137
1928.980469	-92.241158
1927.941406	15.679872
1926.902344	-29.525089
1925.863281	-174.439957
1924.824219	-187.152527
1923.785156	89.909523
1922.746094	-228.818176
1921.705078	-7.472290
1920.666016	116.468773
1919.625000	57.344875
1918.583984	26.029158
1917.544922	-160.456741
1916.503906	-249.630447
1915.462891	-123.472321
1914.421875	-235.786957
1913.378906	-68.027534
1912.337891	-471.894897
1911.296875	133.105057
1910.253906	217.421432
1909.212891	146.736298
1908.169922	41.385300
1907.128906	102.527107
1906.085938	244.553955
1905.042969	39.829407
1904.000000	73.193382
1902.957031	101.915489
1901.914063	156.034866
1900.871094	11.487141
1899.826172	97.924416
1898.783203	50.398167
1897.740234	134.474579
1896.695313	68.483452
1895.650391	97.130264
1894.607422	107.298286
1893.562500	36.709518
1892.517578	-6.180533
1891.472656	-65.205765
1890.427734	34.891705
1889.382813	236.395172
1888.335938	179.647995
1887.291016	217.407013
1886.244141	-58.248543
1885.199219	281.352264
1884.152344	180.843353
1883.105469	38.902969
1882.060547	72.020004
1881.013672	-10.001801
1879.966797	131.302979
1878.919922	256.444214
1877.873047	66.253967
1876.824219	-139.983063
1875.777344	251.992142
1874.728516	245.901154
1873.681641	83.415154
1872.632813	219.909988
1871.585938	200.013870
1870.537109	104.266708
1869.488281	307.325409
1868.439453	82.901016
1867.390625	304.267029
1866.341797	91.392265
1865.291016	122.045692
1864.242188	74.603706
1863.193359	98.350883
1862.142578	-100.586426
1861.093750	278.933838
1860.042969	82.318588
1858.992188	117.506096
1857.941406	-214.374664
1856.890625	219.947876
1855.839844	-26.994942
1854.789063	-0.997972
1853.738281	63.960354
1852.687500	78.464104
1851.634766	331.309479
1850.583984	-68.988266
1849.531250	131.098740
1848.478516	-5.610322
1847.427734	-215.569672
1846.375000	-33.888172
1845.322266	-374.277893
1844.269531	-30.105906
1843.216797	7.254796
1842.162109	161.311325
1841.109375	52.192291
1840.056641	78.074738
1839.001953	78.789955
1837.949219	438.534973
1836.894531	-214.742569
1835.839844	403.255157
1834.785156	-110.374176
1833.732422	18.335239
1832.677734	-65.495148
1831.621094	19.759752
1830.566406	-285.613159
1829.511719	-58.759167
1828.457031	15.026901
1827.400391	-9.380724
1826.343750	144.266937
1825.289063	-138.056534
1824.232422	-39.208210
1823.175781	-129.759430
1822.119141	-1.292125
1821.062500	234.328537
1820.005859	255.510864
1818.949219	-170.192352
1817.892578	261.383057
1816.833984	102.492188
1815.777344	46.199329
1814.718750	37.776283
1813.662109	8.849868
1812.603516	159.875473
1811.544922	-76.296349
1810.486328	-100.632301
1809.427734	127.738800
1808.369141	48.746731
1807.310547	15.297823
1806.251953	-72.750412
1805.191406	55.366879
1804.132813	-196.436386
1803.072266	-104.730186
1802.013672	118.829071
1800.953125	208.179199
1799.892578	433.891479
1798.832031	50.419128
1797.771484	160.191910
1796.710938	142.692337
1795.650391	16.160746
1794.589844	396.167511
1793.527344	458.127930
1792.466797	286.200012
1791.404297	48.501324
1790.343750	407.826569
1789.281250	285.928101
1788.218750	354.668182
1787.156250	219.212875
1786.093750	52.046700
1785.031250	177.493942
1783.968750	262.085938
1782.906250	6.586466
1781.841797	555.867859
1780.779297	307.207184
1779.714844	226.317825
1778.652344	401.467072
1777.587891	302.473724
1776.523438	330.346497
1775.458984	589.187073
1774.394531	764.173218
1773.330078	382.232849
1772.265625	487.037842
1771.201172	471.875458
1770.134766	678.457947
1769.070313	545.640381
1768.003906	530.489746
1766.939453	470.114990
1765.873047	427.854645
1764.806641	573.250549
1763.740234	734.425842
1762.673828	420.962646
1761.607422	408.130554
1760.541016	747.738342
1759.474609	793.592651
1758.406250	500.675385
1757.339844	399.790710
1756.271484	680.496033
1755.205078	956.593445
1754.136719	851.187256
1753.068359	587.862244
1752.000000	518.663452
1750.931641	828.461975
1749.863281	630.697388
1748.794922	730.666687
1747.726563	855.409058
1746.656250	727.640808
1745.587891	678.802612
1744.517578	783.231384
1743.449219	551.906799
1742.378906	814.027100
1741.308594	618.829224
1740.238281	606.116089
1739.167969	487.585052
1738.097656	738.310364
1737.027344	968.698425
1735.957031	973.966125
1734.884766	1069.245972
1733.814453	887.777100
1732.742188	546.672180
1731.671875	315.887146
1730.599609	809.249512
1729.527344	668.445190
1728.455078	543.431458
1727.382813	452.179016
1726.310547	567.699707
1725.238281	651.735901
1724.166016	713.289551
1723.091797	410.977722
1722.019531	434.388947
1720.945313	590.274780
1719.871094	535.098450
1718.798828	605.635742
1717.724609	312.612762
1716.650391	419.084625
1715.576172	550.207642
1714.501953	703.726074
1713.427734	449.042358
1712.351563	595.820557
1711.277344	836.713379
1710.201172	631.478455
1709.126953	354.602478
1708.050781	409.464294
1706.974609	636.825806
1705.900391	572.917603
1704.824219	497.843262
1703.748047	881.854858
1702.669922	538.112671
1701.593750	566.085571
1700.517578	844.730652
1699.439453	758.540344
1698.363281	790.967651
1697.285156	894.981689
1696.208984	846.877258
1695.130859	666.863647
1694.052734	777.587402
1692.974609	754.154053
1691.896484	1054.835205
1690.818359	1087.254028
1689.740234	1014.656738
1688.660156	1286.139404
1687.582031	1166.650757
1686.501953	1149.947388
1685.423828	1043.940918
1684.343750	1259.469971
1683.263672	1296.368408
1682.183594	1672.495483
1681.103516	1318.838013
1680.023438	1592.233643
1678.943359	1533.180664
1677.863281	1723.952637
1676.783203	1486.530151
1675.701172	1398.583618
1674.621094	1794.403442
1673.539063	1942.713135
1672.457031	1937.223389
1671.375000	2005.276123
1670.294922	1852.775024
1669.212891	2323.987061
1668.128906	2438.752441
1667.046875	2030.245483
1665.964844	2309.779541
1664.882813	2339.944580
1663.798828	2468.036621
1662.716797	2989.934570
1661.632813	2928.804688
1660.548828	3094.591553
1659.464844	3120.226563
1658.380859	3225.917236
1657.296875	3316.026855
1656.212891	3815.119873
1655.128906	3736.221924
1654.044922	4019.567383
1652.958984	4249.515137
1651.875000	4379.435547
1650.789063	4784.733887
1649.705078	4943.421875
1648.619141	5352.961914
1647.533203	5489.338379
1646.447266	5947.509766
1645.361328	6274.616699
1644.275391	6461.847656
1643.189453	6977.354004
1642.101563	7687.889648
1641.015625	8129.868164
1639.929688	8582.800781
1638.841797	9472.329102
1637.753906	9727.654297
1636.666016	10228.901367
1635.580078	11159.852539
1634.492188	12283.252930
1633.404297	12471.551758
1632.314453	13465.946289
1631.226563	14462.232422
1630.138672	14944.576172
1629.048828	16290.059570
1627.960938	16371.387695
1626.871094	17101.058594
1625.781250	18268.564453
1624.693359	19041.947266
1623.603516	19169.279297
1622.513672	20402.246094
1621.423828	21234.632813
1620.332031	21540.650391
1619.242188	22372.607422
1618.152344	22671.734375
1617.060547	23624.785156
1615.970703	24164.431641
1614.878906	24226.833984
1613.787109	24976.035156
1612.695313	25126.640625
1611.605469	25283.828125
1610.511719	26493.849609
1609.419922	25626.812500
1608.328125	26434.824219
1607.236328	26732.964844
1606.142578	26717.814453
1605.050781	27015.847656
1603.957031	27203.554688
1602.865234	27181.773438
1601.771484	27552.384766
1600.677734	27971.380859
1599.583984	27702.748047
1598.490234	27672.171875
1597.396484	27802.429688
1596.302734	27961.298828
1595.207031	27836.074219
1594.113281	27750.537109
1593.017578	27671.660156
1591.923828	27911.962891
1590.828125	27551.453125
1589.732422	27804.945313
1588.636719	27767.996094
1587.541016	26989.857422
1586.445313	26876.130859
1585.349609	26373.287109
1584.253906	26508.164063
1583.156250	26218.810547
1582.060547	25971.322266
1580.962891	25444.896484
1579.865234	25579.933594
1578.769531	25126.273438
1577.671875	24927.548828
1576.574219	24796.984375
1575.476563	24372.300781
1574.378906	24182.654297
1573.279297	24225.738281
1572.181641	23597.365234
1571.083984	23513.320313
1569.984375	23183.658203
1568.886719	22566.814453
1567.787109	22272.556641
1566.687500	21927.990234
1565.587891	21467.386719
1564.488281	21511.060547
1563.388672	21272.060547
1562.289063	20936.761719
1561.189453	20413.201172
1560.087891	20139.544922
1558.988281	19517.800781
1557.886719	19520.316406
1556.787109	19518.468750
1555.685547	19113.917969
1554.583984	19107.822266
1553.482422	18320.617188
1552.380859	17715.283203
1551.279297	17731.376953
1550.177734	17143.892578
1549.074219	16930.546875
1547.972656	16809.109375
1546.871094	16521.615234
1545.767578	16312.934570
1544.664063	15997.276367
1543.560547	15764.773438
1542.458984	15490.862305
1541.355469	15005.233398
1540.250000	15078.811523
1539.146484	14844.543945
1538.042969	14789.382813
1536.939453	14409.068359
1535.833984	14406.434570
1534.730469	14128.913086
1533.625000	13768.625977
1532.519531	13639.683594
1531.414063	13565.330078
1530.310547	13473.578125
1529.205078	13181.336914
1528.097656	13259.765625
1526.992188	12745.434570
1525.886719	12904.576172
1524.779297	12586.611328
1523.673828	12658.660156
1522.566406	12288.632813
1521.460938	12195.283203
1520.353516	12330.590820
1519.246094	12132.853516
1518.138672	11695.818359
1517.031250	12009.660156
1515.923828	11672.926758
1514.816406	11634.342773
1513.707031	11726.301758
1512.599609	11283.328125
1511.490234	11242.755859
1510.382813	11532.626953
1509.273438	11320.389648
1508.164063	11108.254883
1507.054688	11096.105469
1505.945313	10758.147461
1504.835938	11067.568359
1503.726563	10864.428711
1502.615234	10767.788086
1501.505859	10994.651367
1500.394531	10557.321289
1499.285156	10862.331055
1498.173828	10709.468750
1497.062500	10478.591797
1495.951172	10614.384766
1494.839844	10607.035156
1493.728516	10523.831055
1492.617188	10637.964844
1491.505859	10442.134766
1490.394531	10387.268555
1489.281250	10523.145508
1488.169922	10180.212891
1487.056641	10398.453125
1485.943359	9949.614258
1484.830078	10131.076172
1483.716797	10154.464844
1482.603516	10026.356445
1481.490234	10244.603516
1480.376953	10034.360352
1479.263672	9772.298828
1478.148438	10161.479492
1477.035156	10012.014648
1475.919922	10182.686523
1474.804688	10147.939453
1473.689453	10214.835938
1472.576172	10212.568359
1471.460938	10037.471680
1470.343750	9985.631836
1469.228516	9972.719727
1468.113281	10095.916016
1466.998047	10169.436523
1465.880859	10322.867188
1464.765625	10176.198242
1463.648438	9887.167969
1462.531250	10260.795898
1461.414063	10161.796875
1460.296875	10347.631836
1459.179688	10324.214844
1458.062500	10272.804688
1456.945313	10566.445313
1455.826172	10286.570313
1454.708984	10545.692383
1453.589844	10546.155273
1452.472656	10863.395508
1451.353516	10754.000977
1450.234375	10845.005859
1449.115234	10819.716797
1447.996094	11031.337891
1446.876953	11378.561523
1445.757813	10948.611328
1444.638672	10884.723633
1443.517578	11352.420898
1442.398438	11329.438477
1441.277344	11500.117188
1440.156250	11900.908203
1439.037109	12011.278320
1437.916016	11726.048828
1436.794922	12388.972656
1435.673828	12353.171875
1434.550781	12003.681641
1433.429688	12483.700195
1432.308594	12667.131836
1431.185547	12996.611328
1430.064453	12866.429688
1428.941406	13305.342773
1427.818359	13140.889648
1426.695313	13405.819336
1425.572266	13522.617188
1424.449219	13690.910156
1423.326172	13957.869141
1422.203125	13911.604492
1421.080078	14365.092773
1419.955078	14554.735352
1418.832031	14722.896484
1417.707031	14650.974609
1416.582031	15305.655273
1415.457031	15651.585938
1414.332031	15733.916016
1413.207031	15799.113281
1412.082031	16087.072266
1410.957031	16077.317383
1409.832031	16797.687500
1408.705078	16924.910156
1407.580078	16666.859375
1406.453125	17716.443359
1405.326172	17633.876953
1404.201172	17698.970703
1403.074219	17956.589844
1401.947266	18372.406250
1400.820313	18242.902344
1399.691406	18793.298828
1398.564453	18689.492188
1397.437500	19432.023438
1396.308594	19511.988281
1395.181641	19912.390625
1394.052734	20370.388672
1392.923828	19967.621094
1391.794922	20478.910156
1390.666016	20985.794922
1389.537109	21048.566406
1388.408203	21267.146484
1387.279297	21801.494141
1386.148438	21985.832031
1385.019531	22415.431641
1383.888672	22463.185547
1382.759766	22470.431641
1381.628906	22878.542969
1380.498047	23152.261719
1379.367188	23920.382813
1378.236328	23840.175781
1377.105469	24420.511719
1375.974609	24666.240234
1374.841797	24824.625000
1373.710938	24746.603516
1372.578125	25341.462891
1371.447266	25633.861328
1370.314453	26026.248047
1369.181641	25988.679688
1368.048828	26295.841797
1366.916016	26324.265625
1365.783203	26239.986328
1364.650391	26721.447266
1363.515625	26482.009766
1362.382813	27090.894531
1361.248047	27183.130859
1360.115234	27319.986328
1358.980469	27580.087891
1357.845703	27415.251953
1356.710938	27424.683594
1355.576172	27561.576172
1354.441406	27838.597656
1353.306641	28100.705078
1352.171875	27740.830078
1351.035156	27983.859375
1349.900391	28095.263672
1348.763672	28444.304688
1347.626953	27955.394531
1346.492188	28039.294922
1345.355469	27701.244141
1344.218750	27770.410156
1343.082031	27570.380859
1341.943359	27336.566406
1340.806641	27677.113281
1339.669922	27273.921875
1338.531250	27372.970703
1337.394531	27457.173828
1336.255859	26692.246094
1335.117188	26890.966797
1333.978516	26204.792969
1332.839844	26503.080078
1331.701172	25863.837891
1330.562500	25110.593750
1329.423828	25089.593750
1328.283203	24965.019531
1327.144531	24774.945313
1326.003906	24667.457031
1324.865234	23993.460938
1323.724609	24241.312500
1322.583984	23609.976563
1321.443359	23407.824219
1320.302734	22910.013672
1319.162109	22509.576172
1318.019531	22385.982422
1316.878906	22106.199219
1315.736328	21533.113281
1314.595703	21236.755859
1313.453125	20919.453125
1312.310547	20192.939453
1311.169922	19994.119141
1310.027344	19846.048828
1308.884766	19297.351563
1307.740234	18955.546875
1306.597656	18489.486328
1305.455078	18478.935547
1304.310547	18238.722656
1303.167969	17695.162109
1302.023438	17295.113281
1300.878906	16863.636719
1299.734375	16571.351563
1298.591797	16264.442383
1297.445313	15957.712891
1296.300781	15486.906250
1295.156250	15451.976563
1294.011719	15349.754883
1292.865234	14690.061523
1291.720703	14476.582031
1290.574219	14130.725586
1289.427734	14010.038086
1288.281250	13479.421875
1287.134766	13266.458984
1285.988281	12673.165039
1284.841797	12798.828125
1283.695313	12296.235352
1282.548828	12266.532227
1281.400391	11902.924805
1280.253906	11692.760742
1279.105469	11457.530273
1277.957031	10886.511719
1276.808594	10966.423828
1275.660156	10630.804688
1274.511719	10649.949219
1273.363281	10100.577148
1272.214844	10038.071289
1271.066406	9805.742188
1269.916016	9514.838867
1268.767578	9188.404297
1267.617188	8987.908203
1266.466797	8789.612305
1265.316406	8526.455078
1264.166016	8361.896484
1263.015625	8247.699219
1261.865234	7993.251953
1260.714844	7937.858398
1259.564453	7888.799316
1258.412109	7615.827148
1257.261719	7401.561035
1256.109375	7685.468750
1254.957031	7167.975098
1253.804688	7211.325195
1252.652344	6934.683105
1251.500000	6978.123047
1250.347656	6718.408691
1249.195313	6511.077148
1248.042969	6366.553711
1246.888672	6376.779785
1245.736328	6508.198242
1244.582031	5985.747559
1243.427734	5753.838379
1242.273438	5655.696289
1241.119141	6069.183594
1239.964844	5639.145996
1238.810547	5426.368164
1237.656250	5201.171387
1236.501953	5278.638184
1235.345703	5160.030273
1234.191406	5210.424805
1233.035156	5187.864746
1231.878906	4908.864746
1230.722656	4834.305664
1229.566406	4699.351074
1228.410156	4579.061523
1227.253906	4781.827637
1226.097656	4430.368164
1224.939453	4158.239746
1223.783203	4319.409668
1222.625000	4449.344727
1221.468750	4331.483398
1220.310547	4186.654785
1219.152344	4008.603027
1217.994141	3922.202881
1216.835938	4039.759277
1215.677734	3878.552979
1214.519531	3954.535156
1213.359375	3620.881104
1212.201172	3859.112549
1211.041016	3544.353760
1209.882813	3418.845703
1208.722656	3588.520752
1207.562500	3394.562988
1206.402344	3312.876465
1205.242188	3422.331787
1204.082031	3157.973877
1202.919922	3207.285156
1201.759766	3144.479736
1200.599609	3224.938965
1199.437500	3068.840088
1198.275391	3248.960205
1197.115234	2734.037109
1195.953125	2785.602539
1194.791016	2725.188965
1193.628906	2722.876465
1192.464844	2621.106689
1191.302734	2695.558350
1190.140625	2616.649414
1188.976563	2817.550049
1187.814453	2523.233887
1186.650391	2593.633301
1185.486328	2365.804199
1184.322266	2357.568604
1183.158203	2483.930176
1181.994141	2539.894775
1180.830078	2320.600830
1179.666016	2204.870117
1178.500000	2269.224609
1177.335938	2161.860352
1176.169922	2207.631836
1175.003906	2284.426758
1173.839844	2156.507568
1172.673828	2061.755127
1171.507813	1785.175781
1170.341797	2151.382568
1169.173828	1899.745728
1168.007813	1955.987305
1166.841797	1741.660889
1165.673828	1539.845581
1164.505859	1672.602417
1163.339844	1658.736816
1162.171875	1541.723389
1161.003906	1649.707275
1159.835938	1654.508545
1158.667969	1519.046875
1157.500000	1602.286987
1156.330078	1260.720825
1155.162109	1612.057861
1153.992188	1340.736816
1152.824219	1454.941284
1151.654297	1488.777222
1150.484375	1621.524414
1149.314453	1327.794800
1148.144531	1442.019775
1146.974609	1580.935547
1145.804688	1340.949951
1144.632813	1376.959839
1143.462891	1283.268433
1142.291016	1286.378662
1141.119141	1236.004517
1139.949219	1282.330811
1138.777344	1223.776245
1137.605469	1307.165283
1136.433594	1271.276001
1135.261719	1286.811157
1134.087891	1244.826050
1132.916016	1299.437988
1131.742188	1146.530029
1130.570313	1129.258789
1129.396484	1146.954468
1128.222656	1041.427612
1127.050781	1167.965210
1125.876953	1323.242432
1124.701172	1164.431763
1123.527344	1034.394897
1122.353516	926.985596
1121.179688	1303.830688
1120.003906	1044.660278
1118.828125	1294.242676
1117.654297	1086.423462
1116.478516	1036.587891
1115.302734	1062.627441
1114.126953	965.691162
1112.951172	1010.196838
1111.775391	745.309143
1110.597656	937.379395
1109.421875	934.785339
1108.244141	948.609558
1107.068359	860.034546
1105.890625	943.487610
1104.712891	1108.791748
1103.535156	950.704590
1102.357422	839.738464
1101.179688	869.976074
1100.001953	937.027588
1098.822266	865.024414
1097.644531	838.007446
1096.464844	680.193054
1095.287109	849.455078
1094.107422	795.930847
1092.927734	709.735352
1091.748047	811.529419
1090.568359	829.544250
1089.388672	661.708191
1088.207031	706.322754
1087.027344	699.857361
1085.845703	621.981689
1084.666016	609.416077
1083.484375	564.236450
1082.302734	506.833099
1081.121094	606.519226
1079.939453	467.551392
1078.757813	512.155884
1077.576172	538.396790
1076.394531	611.513123
1075.210938	709.090393
1074.029297	401.092438
1072.845703	455.886810
1071.662109	494.364014
1070.480469	375.974091
1069.296875	481.651001
1068.113281	436.624054
1066.929688	483.216248
1065.744141	389.381165
1064.560547	258.918701
1063.375000	372.679688
1062.191406	297.184814
1061.005859	246.146149
1059.820313	294.767761
1058.636719	355.539856
1057.451172	359.394165
1056.265625	426.251617
1055.078125	143.570511
1053.892578	13.342432
1052.707031	220.383148
1051.519531	130.825790
1050.333984	154.990112
1049.146484	91.858429
1047.958984	59.192554
1046.771484	73.215813
1045.583984	87.227699
1044.396484	38.324593
1043.208984	30.006191
1042.019531	-49.284996
1040.832031	277.022125
1039.642578	124.702461
1038.455078	148.777420
1037.265625	16.782576
1036.076172	81.408653
1034.886719	4.161214
1033.697266	70.771393
1032.507813	34.043568
1031.318359	236.296783
1030.126953	-150.751328
1028.937500	148.619263
1027.746094	-98.634392
1026.556641	257.270325
1025.365234	76.833344
1024.173828	-42.858856
1022.982422	51.896538
1021.791016	219.414658
1020.599609	20.856339
1019.406250	461.262207
1018.214844	-58.707767
1017.021484	102.620743
1015.830078	-53.404652
1014.636719	18.939043
1013.443359	40.741520
1012.250000	-4.130333
1011.056641	191.301697
1009.863281	148.405472
1008.669922	224.608414
1007.474609	123.182266
1006.281250	267.940063
1005.085938	29.305374
1003.892578	69.095314
1002.697266	74.589767
1001.501953	251.475464
1000.306641	-99.978363
999.111328	-92.498573
997.916016	90.312973
996.720703	-53.423904
995.523438	260.270142
994.328125	50.032158
993.130859	109.772270
991.933594	78.847458
990.736328	23.749598
989.541016	18.952105
988.341797	-9.969343
987.144531	67.732224
985.947266	139.347473
984.750000	124.409294
983.550781	-81.608269
982.353516	223.210068
981.154297	-83.337807
979.955078	116.812584
978.755859	-38.907421
977.556641	225.426697
976.357422	-191.525208
975.158203	-152.315155
973.958984	133.921768
972.757813	-11.730456
971.558594	-20.842014
970.357422	130.658539
969.158203	-93.307533
967.957031	-192.769592
966.755859	-203.935074
965.554688	-221.143143
964.353516	-11.705605
963.150391	-113.207870
961.949219	-86.394058
960.748047	-133.799728
959.544922	-92.993866
958.341797	-120.375923
957.140625	-227.955490
955.937500	135.318069
954.734375	-164.609802
953.531250	-51.885880
952.326172	-133.447632
951.123047	-181.001053
949.919922	-174.521652
948.714844	-132.027161
947.511719	-49.581585
946.306641	86.847168
945.101563	-42.859428
943.896484	-20.549299
942.691406	-94.267624
941.486328	-42.033226
940.281250	-125.785812
939.074219	-75.609039
937.869141	-121.428238
936.662109	76.513313
935.457031	-13.334459
934.250000	-75.202393
933.042969	-123.106834
931.835938	-121.114441
930.628906	104.425911
929.421875	-95.285843
928.212891	70.252014
927.005859	113.962013
925.796875	-153.565338
924.589844	-211.629883
923.380859	69.329315
922.171875	59.044582
920.962891	-104.778275
919.753906	187.860504
918.544922	-29.813726
917.335938	99.245674
916.125000	36.993824
914.916016	30.473814
913.705078	252.958359
912.494141	226.432297
911.285156	32.624905
910.074219	149.376831
908.863281	104.847954
907.652344	112.027290
906.439453	-32.015358
905.228516	177.989853
904.017578	-137.152847
902.804688	-161.900253
901.591797	210.934341
900.380859	193.980286
899.167969	274.392334
897.955078	229.547852
896.742188	174.742523
895.527344	64.314026
894.314453	206.083374
893.101563	8.208661
891.886719	118.104462
890.673828	-32.137211
889.458984	194.733856
888.244141	-3.164109
887.029297	21.166729
885.814453	-29.934946
884.599609	-23.549400
883.384766	68.054626
882.167969	-145.722565
880.953125	128.146881
879.736328	148.206848
878.519531	7.704144
877.304688	134.652481
876.087891	21.838411
874.871094	35.771683
873.654297	-106.786156
872.435547	-217.645416
871.218750	200.004379
870.001953	100.890091
868.783203	3.758801
867.564453	88.635414
866.347656	13.182870
865.128906	80.129593
863.910156	14.511482
862.691406	-112.426491
861.472656	25.524511
860.251953	-142.959335
859.033203	154.915573
857.812500	140.479202
856.593750	37.084091
855.373047	56.148735
854.152344	55.407974
852.931641	200.724960
851.710938	166.296844
850.490234	196.963318
849.269531	215.728165
848.046875	266.020630
846.826172	-96.075821
845.603516	111.940865
844.382813	315.872284
843.160156	34.654709
841.937500	116.216286
840.714844	319.900665
839.492188	334.275085
838.267578	218.564987
837.044922	270.276184
835.822266	235.250412
834.597656	196.260620
833.373047	239.929001
832.150391	442.974701
830.925781	342.790253
829.701172	220.939468
828.476563	215.167389
827.250000	341.168365
826.025391	347.070953
824.800781	229.018814
823.574219	293.833954
822.347656	425.414734
821.123047	379.975372
819.896484	314.858856
818.669922	448.167969
817.443359	380.987610
816.216797	635.913391
814.988281	466.505066
813.761719	621.074646
812.533203	512.477722
811.306641	566.768005
810.078125	593.522400
808.849609	261.125671
807.621094	499.695984
806.392578	532.166870
805.164063	615.560791
803.935547	661.614929
802.705078	535.083496
801.476563	375.203247
800.246094	648.462708
799.017578	635.470215
797.787109	493.132843
796.556641	531.002380
795.326172	400.370758
794.095703	755.352295
792.863281	581.555786
791.632813	699.415833
790.402344	582.320679
789.169922	737.218750
787.937500	455.714111
786.705078	600.686768
785.474609	432.613403
784.242188	649.778992
783.007813	524.679443
781.775391	612.625854
780.542969	469.861145
779.308594	522.511719
778.076172	393.374664
776.841797	469.348145
775.607422	596.019653
774.375000	542.925415
773.140625	632.331238
771.904297	571.351074
770.669922	490.806610
769.435547	507.803253
768.199219	538.407043
766.964844	467.494781
765.728516	484.329285
764.494141	337.284821
763.257813	566.543701
762.021484	427.231659
760.785156	515.951294
759.546875	187.570724
758.310547	198.253296
757.074219	403.680725
755.835938	425.907379
754.599609	648.639160
753.361328	571.404541
752.123047	490.249023
750.884766	492.757629
749.646484	345.366974
748.408203	242.722717
747.167969	381.290741
745.929688	375.815308
744.689453	448.082520
743.451172	545.537170
742.210938	464.063660
740.970703	508.901581
739.730469	578.932861
738.490234	512.874573
737.250000	369.079285
736.009766	448.644836
734.767578	636.889832
733.527344	597.832703
732.285156	671.338928
731.044922	500.195007
729.802734	573.585266
728.560547	476.149658
727.318359	481.512390
726.076172	236.606277
724.832031	623.952271
723.589844	586.468872
722.345703	483.040558
721.103516	519.143677
719.859375	655.963257
718.615234	554.354797
717.371094	625.148560
716.126953	600.954102
714.882813	706.468994
713.638672	742.189453
712.394531	485.518066
711.148438	430.195679
709.902344	610.943604
708.658203	516.808777
707.412109	590.973572
706.166016	371.052185
704.919922	684.923767
703.673828	627.383423
702.427734	575.614075
701.179688	382.714264
699.933594	613.063660
698.685547	481.956848
697.437500	433.919678
696.191406	538.438416
694.943359	538.591248
693.695313	451.803833
692.447266	500.138916
691.197266	523.322388
689.949219	532.933472
688.699219	544.429504
687.451172	260.692719
686.201172	405.232910
684.951172	439.745758
683.701172	341.151520
682.451172	331.228760
681.201172	469.686798
679.951172	371.000519
678.701172	534.361633
677.449219	466.437744
676.199219	215.494186
674.947266	376.741669
673.695313	449.313049
672.443359	279.234070
671.191406	365.182800
669.939453	427.964233
668.687500	509.921509
667.433594	414.813385
666.181641	277.373260
664.927734	505.357544
663.675781	233.260635
662.421875	466.857269
661.167969	367.784973
659.914063	224.501160
658.660156	440.560852
657.406250	416.350189
656.150391	453.581451
654.896484	413.932617
653.640625	454.911896
652.384766	372.963928
651.130859	256.450653
649.875000	702.279358
648.619141	436.001251
647.361328	459.486572
646.105469	565.406311
644.849609	416.171570
643.591797	366.670013
642.335938	441.765320
641.078125	532.138428
639.820313	448.036316
638.562500	484.650879
637.304688	366.030304
636.046875	429.396729
634.789063	651.671448
633.531250	467.875427
632.271484	498.546112
631.011719	412.403595
629.753906	364.534393
628.494141	506.097900
627.234375	458.168854
625.974609	283.972290
624.714844	542.050659
623.455078	490.224640
622.193359	551.191589
620.933594	329.191071
619.671875	296.455963
618.410156	376.448120
617.148438	425.814484
615.888672	320.403778
614.625000	257.025085
613.363281	354.045105
612.101563	166.525146
610.839844	263.475433
609.576172	305.019623
608.314453	247.292648
607.050781	304.039368
605.787109	374.096039
604.523438	253.376221
603.259766	201.326721
601.996094	134.019287
600.730469	125.809746
599.466797	176.663666
598.203125	126.480835
596.937500	142.982239
595.671875	172.792557
594.406250	187.335129
593.140625	112.352654
591.875000	-88.285233
590.609375	55.686615
589.343750	58.746243
588.076172	8.506038
586.810547	3.928270
585.542969	-59.633911
584.275391	135.478638
583.009766	-181.035782
581.742188	-8.816349
580.472656	7.450866
579.205078	124.431549
577.937500	148.241898
576.667969	23.833950
575.400391	64.726059
574.130859	-19.761219
572.861328	34.395725
571.593750	92.319199
570.324219	91.364822
569.052734	56.239124
567.783203	15.422590
566.513672	97.938477
565.242188	-193.292526
563.972656	80.780418
562.701172	30.476669
561.429688	73.088516
560.160156	18.998171
558.888672	29.364735
557.615234	-30.391346
556.343750	-112.869476
555.072266	26.319725
553.798828	-101.602341
552.527344	64.043289
551.253906	47.863884
549.980469	-4.277840
548.707031	-12.870597
547.433594	-53.631611
546.160156	-69.781036
544.886719	-93.492157
543.611328	113.559952
542.337891	63.354053
541.062500	100.142960
539.789063	87.770668
538.513672	-3.976813
537.238281	32.814987
535.962891	-51.324081
534.687500	8.141683
533.410156	-153.391464
532.134766	-130.741455
530.857422	-108.091431
529.582031	-85.441414
528.304688	-62.791397
527.027344	-58.068523
525.750000	8.926163
524.472656	70.247894
523.195313	48.568130
521.917969	-159.788361
520.638672	-122.947662
519.361328	-204.873718
518.082031	-192.516495
516.802734	-80.272224
515.523438	-143.281006
514.244141	-119.596985
512.964844	-58.237175
511.685547	-188.967636
510.406250	-280.097412
509.125000	-11.614658
507.843750	-33.067181
506.564453	-284.084900
505.283203	-130.463989
504.001953	-142.425156
502.720703	-143.077240
501.439453	-301.676575
500.158203	-176.286041
498.875000	-0.160236
497.593750	-74.058914
496.310547	-130.994629
495.027344	-189.767410
493.746094	-120.754585
492.462891	-106.210709
491.179688	-234.369507
489.894531	-191.596649
488.611328	5.121067
487.328125	-6.544960
486.042969	-16.302067
484.759766	127.824608
483.474609	245.665985
482.189453	42.760532
480.904297	61.240578
479.619141	-66.505684
478.333984	154.507614
477.046875	96.201332
475.761719	118.525314
474.474609	120.264198
473.189453	193.218216
471.902344	221.228836
470.615234	63.865326
469.328125	146.252213
468.041016	112.577454
466.753906	290.451874
465.464844	133.323166
464.177734	75.447823
462.888672	90.588921
461.599609	285.318298
460.312500	53.637234
459.023438	186.677277
457.734375	69.205383
456.443359	235.917633
455.154297	279.268005
453.865234	270.325562
452.574219	225.934921
451.285156	299.265594
449.994141	281.109009
448.703125	162.174149
447.412109	43.321751
446.121094	167.194809
444.830078	240.680450
443.537109	136.932327
442.246094	363.453003
440.953125	265.400970
439.662109	143.178940
438.369141	162.752319
437.076172	51.869476
435.783203	21.216316
434.490234	197.471924
433.197266	114.724556
431.902344	171.772949
430.609375	44.449471
429.314453	170.486069
428.019531	58.200905
426.726563	119.124763
425.431641	33.040768
424.136719	112.658455
422.839844	24.846371
421.544922	85.930954
420.250000	124.724998
418.953125	81.735901
417.658203	124.333603
416.361328	75.882278
415.064453	137.159286
413.767578	198.465683
412.470703	23.834929
411.173828	230.140335
409.875000	250.696396
408.578125	167.296799
407.279297	76.557693
405.980469	71.296860
404.683594	212.712646
403.384766	-0.306870
402.085938	61.400581
400.787109	154.677979
399.486328	53.231987
398.187500	-18.459482
396.886719	112.031464
395.587891	73.830811
394.287109	256.266174
392.986328	42.122280
391.685547	98.617012
390.384766	125.508331
389.083984	113.549286
387.783203	125.724365
386.480469	-32.382072
385.179688	-90.419800
383.876953	223.648026
382.574219	-121.128983
381.271484	115.237526
379.968750	210.984909
378.666016	84.808540
377.363281	3.113725
376.058594	102.705139
374.755859	-2.883824
373.451172	52.428875
372.148438	-6.803209
370.843750	24.584295
369.539063	2.445745
368.234375	-99.048973
366.929688	227.971207
365.623047	124.747063
364.318359	-83.613213
363.011719	-64.818367
361.707031	92.419121
360.400391	74.388878
359.093750	-9.988114
357.787109	-18.659225
356.480469	4.076583
355.171875	50.838600
353.865234	-77.491982
352.558594	-235.211990
351.250000	-35.316196
349.941406	112.977081
348.632813	-92.412445
347.324219	-78.501579
346.015625	103.032700
344.707031	128.061249
343.398438	-115.625175
342.087891	86.238914
340.779297	168.465607
339.468750	171.612518
338.158203	71.799362
336.849609	-53.685520
335.539063	32.409267
334.226563	-28.548216
332.916016	-65.545708
331.605469	46.393482
330.292969	-10.702894
328.982422	-36.504700
327.669922	185.751999
326.357422	60.858971
325.044922	-21.704731
323.732422	-76.650497
322.419922	-54.428974
321.107422	-39.508423
319.792969	17.671591
318.480469	-16.865705
317.166016	-12.811423
315.851563	38.975128
314.537109	-88.915779
313.222656	93.128555
311.908203	-230.774261
310.593750	-79.834816
309.277344	-86.482491
307.962891	-36.299721
306.646484	35.901211
305.332031	-137.309082
304.015625	-76.018028
302.699219	-184.974442
301.382813	-185.851852
300.066406	-82.369751
298.748047	-154.539230
297.431641	-76.634224
296.113281	-11.513081
294.796875	2.402567
293.478516	-0.097035
292.160156	-156.132339
290.841797	-6.815495
289.523438	-65.864174
288.203125	14.026195
286.884766	22.656958
285.564453	13.060995
284.246094	25.401743
282.925781	-119.255562
281.605469	-103.174446
280.285156	-125.403748
278.964844	71.405144
277.644531	-5.537848
276.322266	-102.484619
275.001953	-13.331946
273.679688	-104.727112
272.359375	-41.090485
271.037109	-23.020451
269.714844	-108.837654
268.392578	-37.874290
267.070313	-37.983105
265.746094	-14.380788
264.423828	49.288273
263.099609	10.974656
261.777344	-56.461243
260.453125	56.384296
259.128906	112.772346
257.804688	-118.396065
256.480469	-40.148621
255.156250	152.691071
253.830078	-41.955139
252.505859	87.170380
251.179688	-67.390045
249.855469	32.608463
248.529297	-112.801590
247.203125	45.331074
245.876953	-125.475502
244.548828	-105.463715
243.222656	16.238264
241.896484	14.395820
240.568359	-38.284340
239.240234	-11.080493
237.914063	17.902008
236.585938	-80.164185
235.257813	-18.539757
233.927734	131.948532
232.599609	41.112160
231.271484	-46.088512
229.941406	-8.160104
228.613281	113.107460
227.283203	24.061985
225.953125	-46.859890
224.623047	150.372223
223.292969	68.518196
221.960938	-169.097992
220.630859	24.323063
219.300781	47.438393
217.968750	-59.825733
216.636719	-40.396713
215.304688	92.988098
213.972656	39.916515
212.640625	117.064240
211.308594	44.009277
209.976563	28.795435
208.642578	62.360004
207.310547	-99.392883
205.976563	-4.484147
204.642578	-72.310448
203.308594	92.898460
201.974609	75.528046
200.640625	88.798698
199.306641	-102.067253
197.970703	95.258080
196.636719	106.490791
195.300781	-14.104786
193.964844	-75.189339
192.630859	31.448008
191.294922	76.639137
189.957031	47.786491
188.621094	177.532303
187.285156	78.161629
185.947266	38.227539
184.611328	180.232407
183.273438	69.813919
181.935547	-29.859510
180.597656	41.524910
179.259766	85.759453
177.921875	173.082642
176.582031	26.213234
175.244141	-34.325802
173.904297	99.420113
172.566406	110.623070
171.226563	96.515198
169.886719	67.892113
168.546875	66.124023
167.205078	-63.444908
165.865234	-9.728688
164.525391	131.906067
163.183594	0.171981
161.841797	193.580536
160.501953	31.034700
159.160156	121.675766
157.818359	-14.165834
156.476563	110.249969
155.132813	-13.292500
153.791016	-72.343155
152.447266	3.064952
151.105469	207.462921
149.761719	6.157481
148.417969	-123.506790
147.074219	-118.801712
145.730469	-4.905380
144.386719	15.534361
143.041016	132.569702
141.697266	152.586899
140.351563	-96.378922
139.005859	-21.194361
137.660156	-77.003487
136.314453	-136.586136
134.968750	-155.180206
133.623047	96.342644
132.277344	-114.251625
130.929688	-35.078865
129.583984	9.839385
128.236328	-42.098476
126.888672	115.018921
125.541016	-32.182224
124.193359	11.743595
122.845703	-202.028641
121.496094	21.934319
120.148438	22.176193
118.798828	63.250381
117.451172	-46.015705
116.101563	26.669994
114.751953	-88.454918
113.402344	87.221855
112.052734	114.382912
110.701172	225.131943
109.351563	196.361526
108.000000	104.850914
106.650391	-147.472488
105.298828	-137.825317
103.947266	-9.006969
