#Wave		#Intensity
3204.375000	359.393799
3203.544922	62.736210
3202.713867	247.234207
3201.882813	-114.492508
3201.051758	-300.032227
3200.220703	470.561829
3199.389648	442.798950
3198.558594	-49.569519
3197.726563	645.769226
3196.895508	320.004974
3196.063477	410.831268
3195.231445	535.609680
3194.399414	992.669312
3193.567383	797.229980
3192.734375	841.473633
3191.902344	751.741333
3191.069336	950.801331
3190.237305	535.478638
3189.404297	631.783936
3188.571289	1169.999634
3187.738281	871.352661
3186.905273	1008.828186
3186.071289	1015.483643
3185.238281	798.786499
3184.404297	1237.741211
3183.570313	1259.677612
3182.736328	789.666321
3181.902344	1102.195801
3181.068359	1073.078857
3180.233398	1314.894287
3179.399414	1501.093018
3178.564453	1213.085938
3177.729492	1236.364502
3176.895508	1080.032227
3176.060547	1174.276733
3175.224609	901.443420
3174.389648	1205.132080
3173.554688	1058.124512
3172.718750	1008.688477
3171.882813	1702.733765
3171.046875	1620.373291
3170.210938	1332.801758
3169.375000	955.424744
3168.539063	1522.925171
3167.702148	1329.019775
3166.866211	1546.619995
3166.029297	942.686523
3165.192383	1562.497192
3164.355469	1582.633179
3163.518555	1417.999756
3162.681641	1244.295166
3161.843750	1386.789917
3161.006836	1180.532837
3160.168945	1673.081055
3159.331055	1253.036743
3158.493164	1681.214966
3157.655273	1665.907471
3156.817383	1020.425415
3155.979492	1455.724243
3155.140625	1631.753784
3154.302734	1361.801147
3153.463867	999.571045
3152.625000	1421.419556
3151.786133	1647.376099
3150.947266	1531.064087
3150.107422	1382.808960
3149.268555	1337.571289
3148.428711	1670.920898
3147.588867	1323.505615
3146.749023	1314.475708
3145.909180	1514.551758
3145.069336	1493.286621
3144.229492	1239.318726
3143.388672	1653.348633
3142.548828	1358.593384
3141.708008	1321.639404
3140.867188	1548.094238
3140.026367	1467.463501
3139.185547	1426.654907
3138.344727	1531.666016
3137.502930	1163.635864
3136.662109	1700.552368
3135.820313	911.003906
3134.978516	1401.369995
3134.136719	1061.019165
3133.294922	1467.605103
3132.453125	1350.019531
3131.611328	1318.037231
3130.768555	1265.766479
3129.925781	907.151367
3129.083984	1169.050903
3128.241211	1247.578491
3127.397461	1397.312256
3126.554688	1232.270996
3125.711914	1221.390137
3124.868164	1038.795532
3124.025391	1276.069824
3123.181641	1507.314941
3122.337891	1306.926392
3121.494141	1323.435791
3120.650391	859.980896
3119.805664	1547.079956
3118.961914	1174.662476
3118.117188	1116.119873
3117.272461	957.513062
3116.428711	1406.513062
3115.583008	1102.022583
3114.738281	922.944336
3113.893555	1037.487061
3113.047852	1111.889771
3112.203125	1137.624390
3111.357422	775.504211
3110.511719	860.790771
3109.666016	1250.792847
3108.820313	1386.936279
3107.974609	1007.260376
3107.127930	1040.545410
3106.282227	971.152405
3105.435547	978.509155
3104.588867	977.182800
3103.742188	998.485840
3102.895508	1295.703369
3102.048828	969.538208
3101.201172	956.292908
3100.354492	888.889099
3099.506836	1006.244324
3098.659180	813.489014
3097.811523	905.001953
3096.963867	840.024780
3096.116211	621.483032
3095.267578	596.138977
3094.419922	812.228271
3093.571289	604.853882
3092.722656	388.930267
3091.874023	766.540955
3091.025391	814.558289
3090.176758	694.971985
3089.328125	458.964874
3088.478516	577.716248
3087.628906	128.818771
3086.780273	514.144531
3085.930664	510.636505
3085.081055	498.555298
3084.230469	568.650085
3083.380859	814.460999
3082.530273	640.563171
3081.680664	347.629822
3080.830078	411.815735
3079.979492	617.616272
3079.128906	508.827179
3078.278320	569.996338
3077.426758	826.516602
3076.576172	476.934753
3075.724609	750.307190
3074.873047	27.115631
3074.022461	345.709137
3073.169922	265.141235
3072.318359	340.205505
3071.466797	415.226227
3070.614258	507.168121
3069.762695	375.656281
3068.910156	801.205444
3068.057617	304.957550
3067.205078	-154.389664
3066.352539	13.830340
3065.500000	258.291840
3064.646484	477.234802
3063.793945	43.577106
3062.940430	169.288391
3062.086914	461.582642
3061.233398	-93.262459
3060.379883	9.854947
3059.525391	383.913025
3058.671875	416.399658
3057.817383	59.489609
3056.963867	-105.429024
3056.109375	265.662354
3055.254883	611.280090
3054.399414	387.193420
3053.544922	75.811531
3052.690430	356.542267
3051.834961	231.344315
3050.979492	24.501314
3050.125000	-210.406418
3049.268555	109.757149
3048.413086	328.469208
3047.557617	172.592712
3046.702148	106.918633
3045.845703	-186.734787
3044.989258	276.950775
3044.132813	67.895050
3043.276367	-90.390404
3042.419922	-3.796426
3041.563477	403.512695
3040.707031	-153.969193
3039.849609	62.115593
3038.992188	22.330839
3038.134766	415.545349
3037.277344	75.092789
3036.419922	114.205200
3035.562500	240.479843
3034.705078	-259.714539
3033.846680	147.607025
3032.988281	122.361183
3032.129883	420.117767
3031.271484	1.925135
3030.413086	541.171387
3029.554688	344.975189
3028.696289	59.123055
3027.836914	-58.215935
3026.977539	433.319397
3026.119141	470.394531
3025.259766	389.754669
3024.399414	171.827194
3023.540039	764.277283
3022.680664	-171.036407
3021.820313	345.780457
3020.959961	534.672180
3020.100586	339.770081
3019.240234	539.990723
3018.378906	457.362915
3017.518555	156.432953
3016.658203	124.489883
3015.796875	428.580933
3014.936523	491.970490
3014.075195	589.013733
3013.213867	148.903793
3012.352539	567.903503
3011.490234	346.318359
3010.628906	259.157562
3009.766602	401.421967
3008.905273	591.280334
3008.042969	610.663696
3007.180664	658.100159
3006.318359	546.348511
3005.455078	999.129028
3004.592773	571.913940
3003.730469	1114.153931
3002.867188	536.475891
3002.003906	981.047791
3001.140625	925.866516
3000.277344	1018.760986
2999.414063	687.532776
2998.549805	833.688232
2997.686523	1144.521606
2996.822266	785.896729
2995.958008	1080.144409
2995.093750	1168.062378
2994.229492	1189.159058
2993.365234	1634.098999
2992.500000	1028.233521
2991.635742	991.194458
2990.770508	1333.230347
2989.905273	1321.475586
2989.040039	624.633972
2988.174805	1420.893555
2987.309570	1089.293945
2986.443359	1537.468384
2985.578125	1448.390503
2984.711914	1264.837891
2983.845703	1231.748779
2982.979492	1713.518188
2982.113281	1377.408203
2981.247070	1544.966187
2980.380859	1698.700439
2979.513672	1891.440552
2978.646484	1909.115723
2977.779297	1782.378906
2976.912109	1683.609375
2976.044922	1851.760376
2975.177734	1742.168457
2974.310547	1804.970581
2973.442383	1870.669189
2972.574219	2264.153564
2971.706055	1846.931396
2970.837891	2229.464355
2969.969727	2084.658691
2969.101563	2298.022705
2968.233398	2003.701050
2967.364258	2314.388672
2966.495117	1984.379761
2965.625977	2242.557129
2964.756836	1968.401733
2963.887695	2343.218262
2963.018555	2185.838867
2962.149414	2294.713379
2961.279297	2525.623047
2960.409180	2094.431641
2959.539063	2533.342041
2958.668945	2476.479736
2957.798828	2076.387695
2956.928711	2163.878418
2956.057617	2149.054932
2955.187500	2245.094482
2954.316406	2598.621094
2953.445313	2252.121582
2952.574219	2650.084717
2951.703125	2790.811035
2950.832031	2790.589600
2949.959961	2212.583008
2949.088867	2671.688965
2948.216797	2544.764160
2947.344727	3031.598877
2946.472656	2399.236328
2945.600586	2656.895020
2944.728516	2375.926270
2943.855469	3142.025635
2942.982422	2764.705078
2942.110352	2782.491699
2941.237305	2676.190186
2940.364258	2821.253418
2939.491211	2737.345947
2938.617188	2432.862305
2937.744141	2445.895020
2936.870117	2751.480957
2935.996094	2759.236084
2935.122070	2634.770020
2934.248047	2554.597900
2933.374023	2626.219971
2932.500000	2852.311279
2931.625000	2634.791992
2930.750977	2861.095459
2929.875977	2230.690430
2929.000977	2484.824951
2928.125977	2383.748779
2927.250977	2558.207520
2926.375000	2603.364014
2925.500000	2376.118896
2924.624023	2834.415283
2923.748047	2425.882813
2922.872070	2639.435303
2921.996094	2382.650391
2921.120117	2629.426758
2920.244141	2144.755859
2919.367188	2576.008789
2918.490234	2556.404297
2917.614258	2514.945313
2916.737305	2341.733887
2915.860352	2600.125000
2914.982422	2611.326416
2914.105469	2694.066162
2913.227539	1848.623535
2912.350586	2296.964355
2911.472656	2511.935059
2910.594727	2521.088623
2909.716797	2299.822754
2908.837891	2347.721680
2907.959961	2519.194824
2907.081055	1664.750000
2906.203125	1885.925293
2905.324219	1991.998535
2904.445313	2111.885010
2903.566406	1804.181885
2902.686523	2192.977783
2901.807617	2055.555664
2900.927734	2197.834961
2900.048828	2044.285400
2899.168945	1553.995605
2898.289063	1609.047607
2897.409180	2168.093262
2896.528320	1798.909790
2895.648438	1599.695557
2894.767578	1786.634399
2893.886719	2083.115967
2893.006836	1796.787842
2892.125000	1718.643799
2891.244141	1840.321777
2890.363281	1951.150146
2889.481445	1643.711792
2888.600586	1612.624756
2887.718750	1570.762451
2886.836914	1561.841919
2885.955078	1645.963989
2885.073242	1547.124390
2884.190430	1735.301270
2883.308594	1407.298584
2882.425781	1505.577148
2881.542969	1350.009399
2880.661133	1604.111694
2879.777344	1276.883667
2878.894531	1670.371338
2878.011719	1267.065186
2877.127930	1409.690552
2876.245117	1623.303101
2875.361328	1234.225220
2874.477539	1161.730469
2873.593750	1312.955078
2872.708984	1142.593628
2871.825195	795.219910
2870.940430	1450.974243
2870.056641	1441.777466
2869.171875	1154.844482
2868.287109	1203.158691
2867.402344	878.463928
2866.516602	1025.092285
2865.631836	502.022064
2864.746094	896.612000
2863.861328	583.535095
2862.975586	847.597839
2862.089844	991.976196
2861.204102	682.122742
2860.317383	957.288574
2859.431641	941.473572
2858.544922	724.590881
2857.658203	888.493713
2856.771484	666.480164
2855.884766	778.926575
2854.998047	834.385071
2854.111328	868.202698
2853.223633	728.293579
2852.336914	936.157654
2851.449219	780.208069
2850.561523	320.332001
2849.673828	487.788635
2848.786133	929.430847
2847.897461	619.353149
2847.009766	594.356873
2846.121094	64.905197
2845.232422	631.548828
2844.343750	677.410095
2843.455078	671.843872
2842.566406	427.804596
2841.676758	674.600342
2840.788086	45.991882
2839.898438	436.592346
2839.008789	412.637207
2838.119141	142.280090
2837.229492	-95.389847
2836.339844	86.861099
2835.449219	344.988281
2834.559570	345.926758
2833.668945	287.439514
2832.778320	637.712463
2831.887695	224.924606
2830.997070	653.743225
2830.105469	30.313715
2829.214844	337.511353
2828.323242	-63.741528
2827.432617	2.931967
2826.541016	488.698700
2825.649414	-106.705406
2824.756836	389.937805
2823.865234	-223.989700
2822.972656	440.181671
2822.081055	356.020996
2821.188477	64.059555
2820.295898	244.802200
2819.403320	414.773621
2818.510742	80.018082
2817.617188	171.895065
2816.724609	-57.304722
2815.831055	61.712738
2814.937500	51.297489
2814.043945	67.939064
2813.150391	232.972702
2812.256836	-151.989014
2811.362305	-145.832062
2810.467773	-131.511551
2809.574219	33.771057
2808.679688	72.467339
2807.785156	-354.833099
2806.890625	82.718643
2805.995117	-128.811768
2805.100586	241.399368
2804.205078	237.368896
2803.309570	71.906731
2802.414063	267.217224
2801.518555	411.411041
2800.623047	-25.516428
2799.727539	-96.382309
2798.831055	39.979244
2797.934570	257.041779
2797.039063	-179.289841
2796.142578	-136.860748
2795.245117	174.441849
2794.348633	-159.306137
2793.452148	321.289825
2792.554688	197.345306
2791.657227	60.077465
2790.760742	65.234505
2789.863281	454.476105
2788.964844	349.676758
2788.067383	43.618500
2787.169922	325.508850
2786.271484	207.555588
2785.373047	328.498871
2784.474609	537.990356
2783.576172	396.105591
2782.677734	55.873096
2781.779297	190.411362
2780.879883	-18.163307
2779.980469	145.976822
2779.082031	229.688568
2778.182617	99.092133
2777.282227	257.974091
2776.382813	183.781021
2775.483398	72.170410
2774.583008	552.489441
2773.682617	606.995117
2772.783203	201.063461
2771.882813	453.780243
2770.981445	438.883209
2770.081055	504.283081
2769.180664	454.676788
2768.279297	367.718414
2767.377930	545.602234
2766.476563	228.796326
2765.575195	698.157410
2764.673828	475.081299
2763.772461	452.575134
2762.870117	686.685913
2761.967773	431.828278
2761.066406	636.541748
2760.164063	763.805786
2759.261719	875.050659
2758.358398	1063.762939
2757.456055	478.236847
2756.552734	779.141785
2755.650391	596.916443
2754.747070	713.673584
2753.843750	1131.901733
2752.940430	925.850342
2752.036133	991.971008
2751.132813	1023.413086
2750.228516	540.344360
2749.324219	1305.024780
2748.419922	1176.623535
2747.515625	1008.327515
2746.611328	837.454407
2745.707031	743.927490
2744.801758	1052.692749
2743.897461	1129.666748
2742.992188	1006.978577
2742.086914	1549.925049
2741.181641	1043.968506
2740.275391	1256.810913
2739.370117	1139.626343
2738.463867	1440.243530
2737.558594	1418.887085
2736.652344	1458.770630
2735.746094	1325.817627
2734.839844	1312.582275
2733.932617	1294.090942
2733.026367	1100.175537
2732.119141	1602.645630
2731.211914	1275.969604
2730.304688	1674.687744
2729.397461	1265.811157
2728.490234	1366.999512
2727.583008	1823.992432
2726.674805	958.746155
2725.767578	1707.692017
2724.859375	1646.961914
2723.951172	1450.936401
2723.042969	1379.692871
2722.133789	1714.394775
2721.225586	1627.254517
2720.316406	1723.171875
2719.407227	1710.364990
2718.499023	1668.386108
2717.588867	1708.667969
2716.679688	1666.763062
2715.770508	1545.397217
2714.860352	1853.302368
2713.951172	1885.604736
2713.041016	1706.067627
2712.130859	1595.448120
2711.220703	1799.939087
2710.310547	2097.024414
2709.399414	1764.136963
2708.489258	1629.805542
2707.578125	1945.355835
2706.666992	1713.208984
2705.755859	1713.905762
2704.844727	1788.658203
2703.933594	1953.294067
2703.021484	1930.211060
2702.109375	1870.135498
2701.198242	1884.052856
2700.286133	1781.738159
2699.374023	2123.313965
2698.460938	1904.802979
2697.548828	1826.314087
2696.635742	1895.764893
2695.723633	1695.857910
2694.810547	2100.571045
2693.897461	1652.624512
2692.984375	2178.609619
2692.071289	1968.268066
2691.157227	2090.427490
2690.243164	1961.967896
2689.330078	2226.467285
2688.416016	2150.760986
2687.501953	1980.164917
2686.587891	1930.875732
2685.672852	2308.592041
2684.758789	2143.313721
2683.843750	2036.078979
2682.928711	2223.912842
2682.013672	2064.013916
2681.098633	2183.302002
2680.183594	2207.758545
2679.267578	1579.357910
2678.352539	1943.433716
2677.436523	1944.240967
2676.520508	2176.592041
2675.604492	1674.853394
2674.688477	1646.743530
2673.772461	1900.041138
2672.855469	1977.097168
2671.938477	2088.295898
2671.022461	2225.702148
2670.105469	1692.876831
2669.187500	1840.852661
2668.270508	1747.015015
2667.353516	1900.132446
2666.435547	1911.383667
2665.517578	1704.647705
2664.600586	1915.422607
2663.682617	1766.480225
2662.763672	2286.939453
2661.845703	2137.955078
2660.927734	2196.297607
2660.008789	1945.055786
2659.089844	1893.235840
2658.170898	2061.723877
2657.251953	1970.533325
2656.333008	1984.228027
2655.413086	2228.617432
2654.494141	1974.886230
2653.574219	1826.069458
2652.654297	1947.159790
2651.734375	1709.285767
2650.814453	2071.288574
2649.894531	1623.922119
2648.973633	1729.200073
2648.053711	1546.409668
2647.132813	1970.969971
2646.211914	1576.194336
2645.291016	1649.920166
2644.370117	1825.635498
2643.448242	1540.902954
2642.527344	1512.523682
2641.605469	1693.361694
2640.683594	1884.574219
2639.761719	1720.168823
2638.839844	1759.666504
2637.917969	1749.469238
2636.995117	1922.182739
2636.072266	1729.065552
2635.150391	1731.857544
2634.227539	1525.721069
2633.304688	1753.083130
2632.380859	1468.658447
2631.458008	1755.936401
2630.534180	1270.579224
2629.611328	1703.869385
2628.687500	1633.464966
2627.763672	1599.574707
2626.839844	1779.537842
2625.915039	1602.172363
2624.991211	1385.691040
2624.066406	1390.870728
2623.141602	1528.949341
2622.216797	1377.672852
2621.291992	1283.737915
2620.367188	1437.298706
2619.442383	1306.848999
2618.516602	1017.569702
2617.590820	1441.839844
2616.665039	1425.938232
2615.739258	1196.548340
2614.813477	1492.945190
2613.887695	1487.345215
2612.960938	1403.683105
2612.035156	992.201965
2611.108398	1095.849365
2610.181641	1449.082764
2609.254883	1588.948730
2608.328125	1219.183350
2607.400391	1377.191528
2606.473633	921.740540
2605.545898	1199.199219
2604.618164	1310.251953
2603.690430	1023.792908
2602.762695	1049.052246
2601.834961	1061.281860
2600.906250	1221.485718
2599.977539	1002.592834
2599.049805	869.354126
2598.121094	1026.796021
2597.191406	709.349670
2596.262695	742.160461
2595.333984	1068.021484
2594.404297	924.356750
2593.474609	1143.712402
2592.545898	854.787231
2591.615234	775.931274
2590.685547	582.995239
2589.755859	967.936096
2588.825195	922.652039
2587.895508	872.131165
2586.964844	793.121094
2586.034180	952.332703
2585.103516	759.322388
2584.171875	548.237976
2583.241211	777.163879
2582.309570	581.581604
2581.378906	908.661682
2580.447266	1028.651001
2579.515625	708.827209
2578.583008	841.677673
2577.651367	646.015930
2576.719727	786.468201
2575.787109	301.297180
2574.854492	700.147827
2573.921875	561.326599
2572.989258	515.514954
2572.055664	715.108215
2571.123047	330.838684
2570.189453	328.871979
2569.256836	623.760925
2568.323242	515.805786
2567.389648	369.118866
2566.455078	317.944672
2565.521484	204.785782
2564.586914	486.363770
2563.653320	339.581879
2562.718750	293.407532
2561.784180	376.129211
2560.849609	538.699890
2559.914063	719.236755
2558.979492	451.174805
2558.043945	389.334503
2557.108398	263.047546
2556.172852	190.850922
2555.237305	443.162476
2554.301758	175.138290
2553.365234	378.369751
2552.429688	143.808426
2551.493164	328.857819
2550.556641	78.859924
2549.620117	299.781372
2548.683594	29.182608
2547.746094	136.777710
2546.809570	128.524796
2545.872070	-67.472107
2544.934570	-60.343334
2543.997070	486.565277
2543.059570	357.273193
2542.122070	261.377930
2541.183594	396.727905
2540.246094	28.440365
2539.307617	-70.061241
2538.369141	113.911575
2537.430664	382.505188
2536.492188	335.180450
2535.552734	90.189728
2534.614258	176.274048
2533.674805	-109.774742
2532.735352	40.370918
2531.795898	246.845703
2530.856445	88.999146
2529.916016	85.036346
2528.976563	91.249924
2528.036133	333.274719
2527.095703	298.350769
2526.155273	-90.270027
2525.214844	353.920074
2524.274414	116.456146
2523.333984	178.703369
2522.392578	228.090958
2521.451172	203.148438
2520.509766	208.881592
2519.568359	275.989594
2518.626953	145.950897
2517.684570	187.370178
2516.743164	331.035919
2515.800781	436.249237
2514.858398	229.337021
2513.916016	326.748444
2512.973633	84.010780
2512.031250	429.274414
2511.087891	421.661133
2510.145508	173.745483
2509.202148	127.735947
2508.258789	204.311386
2507.315430	-171.313370
2506.371094	382.776123
2505.427734	408.030121
2504.483398	244.312637
2503.539063	555.386902
2502.595703	304.785919
2501.650391	199.707443
2500.706055	114.994698
2499.761719	303.208405
2498.816406	-46.846901
2497.871094	273.846344
2496.926758	145.598877
2495.981445	369.166199
2495.035156	238.325394
2494.089844	369.940430
2493.144531	73.380127
2492.198242	266.028717
2491.251953	186.003769
2490.305664	55.008446
2489.359375	316.144287
2488.413086	123.950394
2487.465820	163.350876
2486.518555	202.751358
2485.572266	242.151840
2484.625000	187.276443
2483.677734	147.625900
2482.729492	181.708755
2481.782227	419.150452
2480.833984	272.532471
2479.886719	-44.445236
2478.938477	27.540739
2477.990234	40.993725
2477.041992	435.532867
2476.092773	-41.517269
2475.144531	139.416901
2474.195313	277.076141
2473.246094	320.675049
2472.296875	158.549606
2471.347656	397.502563
2470.398438	258.141388
2469.448242	519.741333
2468.499023	32.685490
2467.548828	119.075089
2466.598633	212.990417
2465.648438	-154.742310
2464.697266	202.790497
2463.747070	250.835953
2462.795898	58.019932
2461.845703	50.201160
2460.894531	222.253311
2459.943359	492.999359
2458.991211	94.872025
2458.040039	124.826263
2457.088867	-159.291077
2456.136719	394.694763
2455.184570	24.456640
2454.232422	238.953644
2453.280273	-166.683319
2452.327148	399.376465
2451.375000	261.887695
2450.421875	248.345703
2449.468750	143.705002
2448.515625	205.926636
2447.562500	-85.872169
2446.609375	14.164146
2445.655273	-37.509148
2444.702148	256.943634
2443.748047	505.782532
2442.793945	145.694992
2441.839844	76.120529
2440.885742	-117.227882
2439.930664	20.202324
2438.976563	-208.531693
2438.021484	75.145744
2437.066406	277.916626
2436.111328	306.462646
2435.156250	-10.680914
2434.200195	-73.000969
2433.245117	-193.379013
2432.289063	36.734474
2431.333008	-10.608995
2430.376953	22.668793
2429.420898	-226.396912
2428.464844	-137.772812
2427.507813	149.821335
2426.551758	41.752987
2425.594727	31.906712
2424.637695	137.846191
2423.680664	-96.211670
2422.722656	57.446659
2421.765625	135.470505
2420.807617	-30.680000
2419.849609	-103.735786
2418.892578	16.873278
2417.933594	-197.123306
2416.975586	270.427979
2416.017578	23.642763
2415.058594	13.222380
2414.099609	27.887465
2413.140625	27.411564
2412.181641	-445.543091
2411.222656	61.464981
2410.263672	35.695690
2409.304688	-67.985619
2408.343750	109.602028
2407.384766	43.495316
2406.423828	-233.490891
2405.464844	127.067314
2404.503906	-142.423920
2403.542969	-168.492737
2402.582031	332.232056
2401.621094	125.381462
2400.660156	-146.665512
2399.699219	155.550247
2398.738281	206.897995
2397.777344	152.889572
2396.816406	-171.836212
2395.853516	137.511383
2394.892578	-34.381310
2393.929688	222.125549
2392.968750	-50.019482
2392.005859	20.981150
2391.042969	11.780555
2390.080078	162.748001
2389.117188	210.989090
2388.154297	36.425823
2387.191406	312.263428
2386.228516	115.115273
2385.263672	-39.469387
2384.300781	-106.549652
2383.337891	-71.140633
2382.373047	144.242065
2381.408203	14.535958
2380.445313	129.725876
2379.480469	92.418831
2378.515625	-194.783249
2377.550781	35.166634
2376.585938	162.579178
2375.621094	107.597084
2374.656250	209.882614
2373.691406	157.301132
2372.724609	2.371065
2371.759766	-40.282013
2370.792969	89.224197
2369.828125	-45.843662
2368.861328	183.292740
2367.894531	130.478790
2366.927734	164.906006
2365.962891	44.666435
2364.996094	268.443756
2364.027344	113.280746
2363.060547	359.297211
2362.093750	149.227432
2361.126953	275.479797
2360.158203	80.358376
2359.191406	4.761202
2358.222656	-125.615929
2357.255859	249.346146
2356.287109	118.870140
2355.318359	-270.439301
2354.349609	12.167936
2353.380859	-81.040382
2352.412109	124.230804
2351.443359	-267.512512
2350.474609	146.499405
2349.505859	90.424843
2348.535156	-7.917742
2347.566406	375.874207
2346.595703	-251.892776
2345.626953	-99.356735
2344.656250	8.388014
2343.685547	170.691559
2342.714844	305.575531
2341.744141	177.168976
2340.773438	115.784569
2339.802734	218.195892
2338.832031	107.092567
2337.861328	70.418091
2336.888672	257.015015
2335.917969	235.114655
2334.945313	-47.219296
2333.974609	297.840607
2333.001953	92.351791
2332.029297	484.302338
2331.056641	256.448273
2330.085938	251.627747
2329.113281	73.344681
2328.138672	187.415344
2327.166016	175.059189
2326.193359	214.664825
2325.220703	-67.677757
2324.246094	103.091446
2323.273438	-1.014358
2322.298828	-115.014130
2321.324219	-352.742920
2320.351563	-127.814682
2319.376953	186.063522
2318.402344	0.201456
2317.427734	-220.267899
2316.453125	-47.592415
2315.478516	-124.695778
2314.503906	-152.384460
2313.527344	-41.705032
2312.552734	120.762192
2311.576172	-15.767570
2310.601563	47.750740
2309.625000	37.135475
2308.648438	-200.683487
2307.673828	30.577654
2306.697266	-7.316073
2305.720703	-72.387619
2304.744141	-43.716892
2303.767578	-133.520538
2302.789063	-210.986771
2301.812500	-24.592281
2300.835938	-79.964645
2299.857422	111.209595
2298.880859	-526.022278
2297.902344	-120.494476
2296.923828	198.604797
2295.945313	138.115585
2294.968750	-134.274811
2293.990234	-152.903336
2293.011719	-127.239014
2292.031250	-138.541382
2291.052734	47.048866
2290.074219	126.694168
2289.095703	100.443504
2288.115234	22.501839
2287.136719	-365.466125
2286.156250	-177.722626
2285.175781	-51.567963
2284.195313	-73.041054
2283.216797	70.163666
2282.236328	247.712967
2281.255859	179.379150
2280.273438	32.405518
2279.292969	251.520676
2278.312500	65.178955
2277.332031	-15.523765
2276.349609	-187.090607
2275.369141	-36.997364
2274.386719	181.763153
2273.404297	179.497131
2272.423828	-60.883476
2271.441406	-80.364151
2270.458984	-264.257629
2269.476563	-21.307858
2268.494141	93.987244
2267.509766	295.047638
2266.527344	49.762344
2265.544922	-215.093155
2264.560547	-75.472191
2263.578125	-139.350525
2262.593750	5.034895
2261.611328	-183.849991
2260.626953	51.044640
2259.642578	-86.419205
2258.658203	43.018398
2257.673828	-106.714661
2256.689453	-229.510803
2255.705078	31.928961
2254.718750	124.421989
2253.734375	55.359337
2252.750000	71.896332
2251.763672	0.359881
2250.779297	9.491101
2249.792969	316.881073
2248.806641	44.775433
2247.820313	-56.186951
2246.833984	209.408127
2245.847656	83.945580
2244.861328	153.923615
2243.875000	-83.917381
2242.888672	188.688370
2241.900391	-159.015015
2240.914063	93.912346
2239.925781	136.813934
2238.939453	267.512726
2237.951172	-109.400024
2236.962891	121.267548
2235.976563	305.463501
2234.988281	170.079346
2234.000000	220.031860
2233.011719	113.893417
2232.021484	76.024605
2231.033203	77.118721
2230.044922	253.634064
2229.054688	325.302094
2228.066406	-39.165924
2227.076172	166.421249
2226.087891	52.868938
2225.097656	-55.796013
2224.107422	13.259845
2223.117188	301.327667
2222.126953	112.261124
2221.136719	103.288872
2220.146484	48.061455
2219.154297	2.561577
2218.164063	-64.857452
2217.173828	101.158241
2216.181641	199.020844
2215.191406	36.699318
2214.199219	-28.368889
2213.207031	317.240265
2212.214844	254.513229
2211.222656	84.885712
2210.230469	124.168404
2209.238281	-60.017464
2208.246094	8.349734
2207.253906	382.553345
2206.259766	212.897491
2205.267578	-51.393681
2204.273438	140.565201
2203.281250	-138.245575
2202.287109	12.363773
2201.292969	46.480175
2200.300781	-60.102177
2199.306641	22.442867
2198.312500	197.048111
2197.318359	-115.602715
2196.322266	-35.592834
2195.328125	-38.026924
2194.333984	-98.632690
2193.337891	-88.995491
2192.343750	-64.871986
2191.347656	208.619629
2190.351563	-53.030704
2189.357422	19.397650
2188.361328	-34.063473
2187.365234	96.363152
2186.369141	47.687424
2185.373047	98.175102
2184.376953	-170.628769
2183.378906	182.096115
2182.382813	186.514191
2181.384766	79.713112
2180.388672	26.084127
2179.390625	-160.455276
2178.394531	58.937561
2177.396484	-52.714642
2176.398438	-60.499249
2175.400391	28.290897
2174.402344	129.093430
2173.404297	-117.798569
2172.406250	57.767384
2171.406250	211.536667
2170.408203	485.866516
2169.408203	48.386150
2168.410156	269.531158
2167.410156	-56.881943
2166.412109	-64.925179
2165.412109	-31.997070
2164.412109	-8.748793
2163.412109	-274.754425
2162.412109	256.935333
2161.412109	246.314804
2160.412109	211.581329
2159.410156	184.067566
2158.410156	-0.002773
2157.408203	-106.980232
2156.408203	156.779053
2155.406250	40.131371
2154.404297	147.308868
2153.404297	13.797850
2152.402344	190.661301
2151.400391	129.307327
2150.398438	48.708721
2149.396484	95.555038
2148.392578	65.434196
2147.390625	73.752693
2146.388672	202.213730
2145.384766	133.567184
2144.382813	300.370239
2143.378906	87.548271
2142.375000	52.505920
2141.371094	219.172989
2140.367188	-120.856651
2139.363281	0.124141
2138.359375	173.845947
2137.355469	287.490509
2136.351563	72.347015
2135.347656	392.243713
2134.341797	30.797091
2133.337891	125.110344
2132.332031	92.287468
2131.326172	23.491436
2130.322266	191.998703
2129.316406	262.168854
2128.310547	188.516586
2127.304688	64.551750
2126.298828	263.999084
2125.292969	151.991470
2124.285156	147.768066
2123.279297	294.358704
2122.271484	187.130142
2121.265625	144.534286
2120.257813	279.025604
2119.251953	145.458511
2118.244141	361.201385
2117.236328	323.306488
2116.228516	318.883270
2115.220703	-17.931376
2114.212891	228.688766
2113.205078	224.216492
2112.195313	432.439178
2111.187500	313.192444
2110.179688	193.964905
2109.169922	79.539940
2108.160156	311.446777
2107.152344	-20.316402
2106.142578	318.930176
2105.132813	58.854591
2104.123047	1.724481
2103.113281	254.825104
2102.103516	481.574554
2101.093750	107.052971
2100.082031	9.324627
2099.072266	100.005402
2098.060547	395.706085
2097.050781	202.550522
2096.039063	26.129833
2095.027344	266.817535
2094.017578	111.846634
2093.005859	373.843201
2091.994141	21.157413
2090.982422	154.431946
2089.968750	109.050949
2088.957031	-74.431389
2087.945313	53.972641
2086.931641	-19.989616
2085.919922	60.730362
2084.906250	77.168144
2083.894531	91.196617
2082.880859	224.132446
2081.867188	83.519569
2080.853516	95.110023
2079.839844	44.866787
2078.826172	113.469643
2077.812500	253.326874
2076.796875	148.378799
2075.783203	33.938366
2074.769531	161.807266
2073.753906	211.244049
2072.738281	-157.285126
2071.724609	-126.845230
2070.708984	41.252552
2069.693359	114.337746
2068.677734	-116.366898
2067.662109	30.236355
2066.646484	79.510864
2065.630859	150.099304
2064.613281	14.332176
2063.597656	61.160000
2062.580078	-114.885223
2061.564453	-6.458303
2060.546875	260.703094
2059.529297	-36.186409
2058.511719	-39.224369
2057.496094	223.016907
2056.478516	163.063156
2055.458984	39.181946
2054.441406	111.826340
2053.423828	89.744537
2052.406250	-126.422745
2051.386719	0.594021
2050.369141	231.650513
2049.349609	1.326680
2048.330078	-32.625351
2047.312500	113.138451
2046.292969	-62.720116
2045.273438	262.637085
2044.253906	131.688675
2043.234375	244.182755
2042.212891	139.242081
2041.193359	46.129158
2040.173828	111.289032
2039.152344	176.416626
2038.132813	191.913315
2037.111328	129.485214
2036.089844	340.878998
2035.068359	224.131821
2034.048828	100.324471
2033.027344	35.528065
2032.005859	116.993271
2030.982422	120.586647
2029.960938	218.485428
2028.939453	23.972206
2027.916016	192.550171
2026.894531	104.140877
2025.871094	232.555283
2024.849609	186.549026
2023.826172	366.706390
2022.802734	245.291977
2021.779297	203.973831
2020.755859	63.759811
2019.732422	319.093353
2018.708984	242.431595
2017.683594	125.773476
2016.660156	169.146606
2015.634766	158.380920
2014.611328	399.300964
2013.585938	268.521729
2012.562500	196.559265
2011.537109	232.760880
2010.511719	203.116104
2009.486328	-7.513677
2008.460938	209.609894
2007.435547	177.590408
2006.408203	68.045677
2005.382813	221.587891
2004.357422	400.897400
2003.330078	413.425934
2002.302734	242.819489
2001.277344	-143.693771
2000.250000	528.348022
1999.222656	90.266815
1998.195313	445.296967
1997.167969	227.842896
1996.140625	158.203461
1995.113281	236.302567
1994.085938	429.245758
1993.056641	343.160278
1992.029297	139.897247
1991.000000	234.300949
1989.970703	307.572357
1988.943359	109.063019
1987.914063	179.962692
1986.884766	208.673645
1985.855469	87.508446
1984.826172	219.205429
1983.796875	98.053734
1982.767578	243.719437
1981.736328	216.175217
1980.707031	270.509094
1979.675781	205.517883
1978.646484	234.082657
1977.615234	40.486519
1976.583984	263.094818
1975.552734	466.917419
1974.521484	182.190674
1973.490234	327.514282
1972.458984	47.554302
1971.427734	143.769806
1970.396484	123.162788
1969.363281	55.846294
1968.332031	247.705750
1967.298828	320.433929
1966.267578	113.037445
1965.234375	3.712899
1964.201172	174.407974
1963.167969	83.747711
1962.134766	39.757595
1961.101563	-167.478348
1960.068359	-45.881912
1959.035156	255.177811
1958.000000	190.165161
1956.966797	-68.280014
1955.931641	120.751366
1954.898438	186.225372
1953.863281	-9.226330
1952.828125	-34.605034
1951.792969	-57.658726
1950.757813	-308.885376
1949.722656	-280.695129
1948.687500	-22.101519
1947.652344	-249.971725
1946.615234	-112.480270
1945.580078	-89.037674
1944.542969	-200.516541
1943.507813	829.881714
1942.470703	-86.246925
1941.433594	-241.876129
1940.398438	-234.754929
1939.361328	-16.160456
1938.324219	-18.392542
1937.287109	-46.193310
1936.248047	-99.544144
1935.210938	67.748360
1934.173828	144.411819
1933.134766	-127.216843
1932.097656	-4.139421
1931.058594	-192.117706
1930.019531	-50.527550
1928.980469	-66.763428
1927.941406	-187.395584
1926.902344	-152.597778
1925.863281	-83.034035
1924.824219	100.106285
1923.785156	-59.920906
1922.746094	-217.588196
1921.705078	127.679405
1920.666016	-250.109726
1919.625000	-159.807602
1918.583984	18.475721
1917.544922	-78.906822
1916.503906	-48.910870
1915.462891	-18.933514
1914.421875	-151.009842
1913.378906	-139.557190
1912.337891	38.487789
1911.296875	-283.276581
1910.253906	-202.439560
1909.212891	107.335716
1908.169922	77.064072
1907.128906	-89.618759
1906.085938	25.774616
1905.042969	113.382431
1904.000000	-44.004230
1902.957031	-339.981018
1901.914063	6.358404
1900.871094	89.258224
1899.826172	-63.435390
1898.783203	-49.838409
1897.740234	243.090652
1896.695313	32.717464
1895.650391	92.424507
1894.607422	-30.186907
1893.562500	-72.016441
1892.517578	38.402435
1891.472656	33.460407
1890.427734	120.749344
1889.382813	-151.666245
1888.335938	-147.375870
1887.291016	-71.647560
1886.244141	-81.213188
1885.199219	222.563583
1884.152344	3.304345
1883.105469	39.772610
1882.060547	133.792511
1881.013672	41.274601
1879.966797	-53.525352
1878.919922	-0.988149
1877.873047	49.224174
1876.824219	-75.462425
1875.777344	158.778076
1874.728516	-189.018906
1873.681641	-175.634720
1872.632813	203.348816
1871.585938	60.314484
1870.537109	186.266342
1869.488281	84.637993
1868.439453	155.380692
1867.390625	83.646866
1866.341797	-47.795853
1865.291016	126.269394
1864.242188	15.518483
1863.193359	292.822571
1862.142578	97.130913
1861.093750	-13.577823
1860.042969	63.922890
1858.992188	-30.692999
1857.941406	152.299194
1856.890625	-11.121922
1855.839844	-62.124264
1854.789063	180.384048
1853.738281	60.580822
1852.687500	32.497387
1851.634766	41.088749
1850.583984	63.419720
1849.531250	-166.275543
1848.478516	53.069572
1847.427734	82.242447
1846.375000	125.141243
1845.322266	16.910732
1844.269531	245.217026
1843.216797	317.804321
1842.162109	-53.579472
1841.109375	126.562263
1840.056641	-84.542099
1839.001953	255.640472
1837.949219	40.001183
1836.894531	-26.948679
1835.839844	235.312698
1834.785156	-192.796631
1833.732422	-129.424759
1832.677734	-11.238166
1831.621094	-135.260208
1830.566406	62.826153
1829.511719	-38.334743
1828.457031	216.747421
1827.400391	8.283352
1826.343750	153.697266
1825.289063	-29.588572
1824.232422	-89.592278
1823.175781	484.680695
1822.119141	-47.591866
1821.062500	177.519836
1820.005859	222.404556
1818.949219	9.632691
1817.892578	134.311737
1816.833984	-130.804642
1815.777344	14.360478
1814.718750	-157.234512
1813.662109	63.059612
1812.603516	103.335976
1811.544922	-27.201859
1810.486328	104.151283
1809.427734	-78.709984
1808.369141	205.108963
1807.310547	243.041809
1806.251953	51.141365
1805.191406	275.637817
1804.132813	79.242950
1803.072266	169.473679
1802.013672	7.268347
1800.953125	267.993469
1799.892578	180.837021
1798.832031	80.070572
1797.771484	52.053600
1796.710938	367.124084
1795.650391	100.541878
1794.589844	326.916473
1793.527344	432.856903
1792.466797	379.825012
1791.404297	129.306427
1790.343750	350.981720
1789.281250	252.600204
1788.218750	256.357666
1787.156250	294.140961
1786.093750	114.161064
1785.031250	374.207184
1783.968750	409.685608
1782.906250	293.254700
1781.841797	510.072357
1780.779297	318.875763
1779.714844	433.648621
1778.652344	530.260925
1777.587891	533.966003
1776.523438	338.363831
1775.458984	505.144012
1774.394531	642.433594
1773.330078	514.826416
1772.265625	708.656616
1771.201172	443.041443
1770.134766	451.289215
1769.070313	742.310974
1768.003906	402.188049
1766.939453	842.380310
1765.873047	877.695679
1764.806641	662.062439
1763.740234	387.736481
1762.673828	918.042175
1761.607422	849.389771
1760.541016	692.652344
1759.474609	657.947327
1758.406250	740.692383
1757.339844	746.640198
1756.271484	951.264954
1755.205078	781.112183
1754.136719	692.267395
1753.068359	759.156799
1752.000000	1031.338989
1750.931641	768.810364
1749.863281	754.469238
1748.794922	810.042419
1747.726563	797.959717
1746.656250	858.023682
1745.587891	778.326660
1744.517578	570.210205
1743.449219	918.698242
1742.378906	868.329529
1741.308594	770.682556
1740.238281	1013.128479
1739.167969	692.585388
1738.097656	887.695984
1737.027344	398.472107
1735.957031	852.386536
1734.884766	907.878662
1733.814453	954.357056
1732.742188	933.343201
1731.671875	817.884155
1730.599609	958.813904
1729.527344	733.234192
1728.455078	817.943970
1727.382813	686.871155
1726.310547	513.152466
1725.238281	838.278381
1724.166016	806.125854
1723.091797	814.419617
1722.019531	887.839600
1720.945313	790.602661
1719.871094	626.058472
1718.798828	861.097839
1717.724609	959.174011
1716.650391	628.666016
1715.576172	598.888367
1714.501953	539.970215
1713.427734	458.651794
1712.351563	789.945129
1711.277344	468.746552
1710.201172	860.462769
1709.126953	893.474365
1708.050781	812.205688
1706.974609	1053.586426
1705.900391	609.450317
1704.824219	734.341003
1703.748047	565.854065
1702.669922	688.488037
1701.593750	721.549011
1700.517578	844.133118
1699.439453	993.539734
1698.363281	1033.272095
1697.285156	862.721741
1696.208984	1012.077454
1695.130859	1136.795288
1694.052734	1100.496094
1692.974609	892.082153
1691.896484	1121.838989
1690.818359	1219.676758
1689.740234	1161.081909
1688.660156	1368.369629
1687.582031	1166.837769
1686.501953	1079.282471
1685.423828	1192.728149
1684.343750	1190.056885
1683.263672	1299.004639
1682.183594	1483.806030
1681.103516	1833.683594
1680.023438	1636.850464
1678.943359	1420.019653
1677.863281	1847.826172
1676.783203	1691.264160
1675.701172	1835.754395
1674.621094	1875.436279
1673.539063	2044.389526
1672.457031	2146.445557
1671.375000	2440.092773
1670.294922	2207.922119
1669.212891	2325.527588
1668.128906	2521.051514
1667.046875	2549.529541
1665.964844	2920.845703
1664.882813	2593.144287
1663.798828	2692.852539
1662.716797	3188.601318
1661.632813	3192.541016
1660.548828	3305.485596
1659.464844	3309.432861
1658.380859	3491.279785
1657.296875	3650.846436
1656.212891	3563.641113
1655.128906	4032.095459
1654.044922	4171.537598
1652.958984	4390.932129
1651.875000	4899.040039
1650.789063	5298.168457
1649.705078	5248.614746
1648.619141	5734.169922
1647.533203	5948.754883
1646.447266	6516.182129
1645.361328	6996.889648
1644.275391	7468.578125
1643.189453	7913.502441
1642.101563	8611.150391
1641.015625	9474.899414
1639.929688	9686.500977
1638.841797	10430.104492
1637.753906	11248.836914
1636.666016	11841.264648
1635.580078	12925.409180
1634.492188	13834.194336
1633.404297	14813.573242
1632.314453	15688.552734
1631.226563	16651.826172
1630.138672	17818.474609
1629.048828	18373.816406
1627.960938	19404.814453
1626.871094	20309.361328
1625.781250	21605.224609
1624.693359	22427.283203
1623.603516	23138.507813
1622.513672	23960.078125
1621.423828	24825.607422
1620.332031	25460.968750
1619.242188	26675.205078
1618.152344	27654.814453
1617.060547	27699.511719
1615.970703	28508.556641
1614.878906	28842.478516
1613.787109	29357.390625
1612.695313	29770.583984
1611.605469	31018.132813
1610.511719	31013.781250
1609.419922	31117.585938
1608.328125	31854.640625
1607.236328	31967.136719
1606.142578	31962.710938
1605.050781	32527.296875
1603.957031	32758.753906
1602.865234	32489.699219
1601.771484	32630.755859
1600.677734	32890.796875
1599.583984	33210.265625
1598.490234	32703.458984
1597.396484	32760.763672
1596.302734	33355.464844
1595.207031	33157.250000
1594.113281	32615.654297
1593.017578	32611.388672
1591.923828	32464.082031
1590.828125	32521.503906
1589.732422	32717.544922
1588.636719	32372.378906
1587.541016	31732.623047
1586.445313	31735.244141
1585.349609	31755.478516
1584.253906	30867.804688
1583.156250	30951.966797
1582.060547	30565.835938
1580.962891	30964.277344
1579.865234	30143.335938
1578.769531	29518.185547
1577.671875	29446.701172
1576.574219	28980.021484
1575.476563	29044.818359
1574.378906	28532.316406
1573.279297	28002.462891
1572.181641	27648.353516
1571.083984	27272.445313
1569.984375	27370.505859
1568.886719	26808.406250
1567.787109	26239.941406
1566.687500	26219.812500
1565.587891	26149.296875
1564.488281	24965.433594
1563.388672	24818.507813
1562.289063	24634.414063
1561.189453	24143.718750
1560.087891	23907.294922
1558.988281	23237.371094
1557.886719	22801.982422
1556.787109	22636.031250
1555.685547	22435.146484
1554.583984	21906.095703
1553.482422	20992.150391
1552.380859	21093.630859
1551.279297	20525.785156
1550.177734	20399.921875
1549.074219	19808.394531
1547.972656	19739.593750
1546.871094	19229.306641
1545.767578	18929.025391
1544.664063	18445.330078
1543.560547	18591.037109
1542.458984	17821.458984
1541.355469	17521.740234
1540.250000	17554.070313
1539.146484	17169.412109
1538.042969	16887.507813
1536.939453	16688.666016
1535.833984	16284.801758
1534.730469	15983.643555
1533.625000	15861.501953
1532.519531	15785.237305
1531.414063	15798.437500
1530.310547	15521.672852
1529.205078	15162.200195
1528.097656	14711.342773
1526.992188	14781.501953
1525.886719	14790.662109
1524.779297	14335.835938
1523.673828	14460.574219
1522.566406	14158.464844
1521.460938	13867.370117
1520.353516	14168.570313
1519.246094	13757.926758
1518.138672	13486.739258
1517.031250	13500.726563
1515.923828	13423.368164
1514.816406	13065.464844
1513.707031	13140.519531
1512.599609	13093.802734
1511.490234	12929.744141
1510.382813	12865.756836
1509.273438	12936.583984
1508.164063	12687.989258
1507.054688	12324.360352
1505.945313	12873.250000
1504.835938	12462.001953
1503.726563	12404.888672
1502.615234	12243.623047
1501.505859	12423.256836
1500.394531	12205.679688
1499.285156	12344.099609
1498.173828	12347.994141
1497.062500	12087.259766
1495.951172	11995.832031
1494.839844	12184.224609
1493.728516	12058.191406
1492.617188	11971.257813
1491.505859	12003.607422
1490.394531	11684.899414
1489.281250	11756.370117
1488.169922	11801.846680
1487.056641	11637.246094
1485.943359	11632.999023
1484.830078	11533.517578
1483.716797	11732.873047
1482.603516	11507.934570
1481.490234	11668.346680
1480.376953	11536.619141
1479.263672	11340.067383
1478.148438	11747.149414
1477.035156	11563.680664
1475.919922	11449.520508
1474.804688	11270.575195
1473.689453	11433.278320
1472.576172	11343.078125
1471.460938	11445.284180
1470.343750	11307.677734
1469.228516	11230.632813
1468.113281	11373.959961
1466.998047	11169.597656
1465.880859	11485.709961
1464.765625	11877.301758
1463.648438	11414.075195
1462.531250	11326.547852
1461.414063	11353.449219
1460.296875	11466.673828
1459.179688	11396.557617
1458.062500	11447.277344
1456.945313	11715.798828
1455.826172	11637.183594
1454.708984	11843.155273
1453.589844	12014.625977
1452.472656	11832.683594
1451.353516	11900.767578
1450.234375	11996.872070
1449.115234	11869.001953
1447.996094	12178.342773
1446.876953	12438.101563
1445.757813	12538.524414
1444.638672	12288.135742
1443.517578	12745.855469
1442.398438	12895.782227
1441.277344	13039.259766
1440.156250	12666.540039
1439.037109	13020.822266
1437.916016	13265.384766
1436.794922	13744.227539
1435.673828	13692.060547
1434.550781	13854.865234
1433.429688	13927.403320
1432.308594	14118.113281
1431.185547	14549.377930
1430.064453	14091.449219
1428.941406	14486.157227
1427.818359	14951.619141
1426.695313	15118.612305
1425.572266	15302.761719
1424.449219	15566.281250
1423.326172	15726.779297
1422.203125	15724.248047
1421.080078	16182.855469
1419.955078	16375.476563
1418.832031	16829.621094
1417.707031	16743.492188
1416.582031	17036.781250
1415.457031	17353.583984
1414.332031	17648.902344
1413.207031	17520.029297
1412.082031	18031.621094
1410.957031	18136.224609
1409.832031	18564.130859
1408.705078	18668.708984
1407.580078	19610.138672
1406.453125	19547.681641
1405.326172	19789.111328
1404.201172	19780.199219
1403.074219	20385.197266
1401.947266	20489.630859
1400.820313	21051.632813
1399.691406	21209.462891
1398.564453	21553.230469
1397.437500	21879.826172
1396.308594	22084.580078
1395.181641	22426.025391
1394.052734	23038.675781
1392.923828	22935.742188
1391.794922	23575.947266
1390.666016	23889.347656
1389.537109	23841.953125
1388.408203	24686.699219
1387.279297	24888.931641
1386.148438	25012.216797
1385.019531	25598.369141
1383.888672	25380.351563
1382.759766	26145.451172
1381.628906	26658.779297
1380.498047	26502.646484
1379.367188	26951.890625
1378.236328	27175.156250
1377.105469	27617.835938
1375.974609	28343.726563
1374.841797	28311.212891
1373.710938	28606.681641
1372.578125	28755.203125
1371.447266	29091.033203
1370.314453	29309.751953
1369.181641	29424.166016
1368.048828	29979.015625
1366.916016	30261.425781
1365.783203	30369.380859
1364.650391	30641.089844
1363.515625	30598.085938
1362.382813	31218.398438
1361.248047	31677.027344
1360.115234	31300.343750
1358.980469	31809.888672
1357.845703	32024.009766
1356.710938	32412.279297
1355.576172	32025.310547
1354.441406	31878.455078
1353.306641	32536.310547
1352.171875	32510.501953
1351.035156	32871.019531
1349.900391	32813.421875
1348.763672	32764.398438
1347.626953	32339.982422
1346.492188	32621.980469
1345.355469	32704.617188
1344.218750	32778.792969
1343.082031	32708.847656
1341.943359	32552.095703
1340.806641	32439.921875
1339.669922	32438.007813
1338.531250	31652.373047
1337.394531	31811.646484
1336.255859	31922.226563
1335.117188	31770.275391
1333.978516	31569.730469
1332.839844	30821.123047
1331.701172	30796.541016
1330.562500	30877.808594
1329.423828	30110.792969
1328.283203	30082.273438
1327.144531	29772.531250
1326.003906	29706.111328
1324.865234	28779.328125
1323.724609	28432.072266
1322.583984	28256.158203
1321.443359	28040.205078
1320.302734	27425.089844
1319.162109	26742.634766
1318.019531	26873.548828
1316.878906	26567.365234
1315.736328	25993.230469
1314.595703	25484.750000
1313.453125	25212.878906
1312.310547	24521.234375
1311.169922	24597.796875
1310.027344	23750.492188
1308.884766	23348.519531
1307.740234	23014.226563
1306.597656	22110.832031
1305.455078	22192.201172
1304.310547	21390.525391
1303.167969	20702.939453
1302.023438	21039.595703
1300.878906	20356.623047
1299.734375	19819.253906
1298.591797	19560.060547
1297.445313	19033.650391
1296.300781	18526.384766
1295.156250	18031.968750
1294.011719	17775.554688
1292.865234	17188.964844
1291.720703	17042.265625
1290.574219	17284.791016
1289.427734	16265.509766
1288.281250	16377.816406
1287.134766	15855.251953
1285.988281	14763.298828
1284.841797	14983.114258
1283.695313	14591.456055
1282.548828	14355.437500
1281.400391	13686.873047
1280.253906	13530.979492
1279.105469	13402.501953
1277.957031	13540.735352
1276.808594	12801.569336
1275.660156	12660.821289
1274.511719	12308.234375
1273.363281	12411.067383
1272.214844	12069.219727
1271.066406	11211.605469
1269.916016	11245.527344
1268.767578	10967.077148
1267.617188	10818.749023
1266.466797	10488.176758
1265.316406	10411.315430
1264.166016	10043.298828
1263.015625	9759.240234
1261.865234	9670.102539
1260.714844	9520.309570
1259.564453	9092.146484
1258.412109	8967.730469
1257.261719	8889.420898
1256.109375	8658.441406
1254.957031	8099.096191
1253.804688	8274.246094
1252.652344	8083.354004
1251.500000	7633.259277
1250.347656	7743.706543
1249.195313	7576.122559
1248.042969	7279.048828
1246.888672	7469.059570
1245.736328	7161.739746
1244.582031	6890.101563
1243.427734	6727.211426
1242.273438	6844.257813
1241.119141	6593.813965
1239.964844	6381.074219
1238.810547	6479.456543
1237.656250	6385.843262
1236.501953	6221.359863
1235.345703	6073.686035
1234.191406	6184.726563
1233.035156	5526.230957
1231.878906	5593.642090
1230.722656	5663.153809
1229.566406	5711.835938
1228.410156	5222.838867
1227.253906	5373.761719
1226.097656	5139.241699
1224.939453	4917.362793
1223.783203	4760.135254
1222.625000	4796.681641
1221.468750	4841.558105
1220.310547	4592.969727
1219.152344	4550.551270
1217.994141	4235.581543
1216.835938	4384.726563
1215.677734	4313.351563
1214.519531	4414.668945
1213.359375	4330.936035
1212.201172	4290.905273
1211.041016	4005.650146
1209.882813	4005.248779
1208.722656	3919.708984
1207.562500	3703.336914
1206.402344	3738.435059
1205.242188	3457.849121
1204.082031	3517.969482
1202.919922	3540.755127
1201.759766	3420.300781
1200.599609	3463.895752
1199.437500	3287.555908
1198.275391	3451.598877
1197.115234	3055.459473
1195.953125	3190.511719
1194.791016	3091.207764
1193.628906	3145.408936
1192.464844	3129.164551
1191.302734	2791.646484
1190.140625	2800.374756
1188.976563	2985.287842
1187.814453	2873.883301
1186.650391	2640.362549
1185.486328	2616.129150
1184.322266	2463.552246
1183.158203	2561.567871
1181.994141	2415.324463
1180.830078	2517.516113
1179.666016	2499.685303
1178.500000	2138.476074
1177.335938	2255.233643
1176.169922	2258.255859
1175.003906	2387.446289
1173.839844	2210.602539
1172.673828	2075.218018
1171.507813	2198.259766
1170.341797	2038.183350
1169.173828	2177.802734
1168.007813	1796.803711
1166.841797	1855.893799
1165.673828	1950.124390
1164.505859	2009.250244
1163.339844	1750.445923
1162.171875	1830.278320
1161.003906	1736.764893
1159.835938	1564.903442
1158.667969	1933.618530
1157.500000	1687.579590
1156.330078	1631.403931
1155.162109	1581.431641
1153.992188	1739.742920
1152.824219	1638.288086
1151.654297	1631.718018
1150.484375	1637.536743
1149.314453	1381.740356
1148.144531	1614.223877
1146.974609	1620.113159
1145.804688	1510.714355
1144.632813	1658.744507
1143.462891	1302.415283
1142.291016	1396.966553
1141.119141	1351.584229
1139.949219	1460.511475
1138.777344	1419.290161
1137.605469	1388.388062
1136.433594	1330.784424
1135.261719	1219.767090
1134.087891	1435.671387
1132.916016	1369.928223
1131.742188	1123.425415
1130.570313	1402.956055
1129.396484	1306.524414
1128.222656	1183.444702
1127.050781	1259.583008
1125.876953	1276.201416
1124.701172	1085.529175
1123.527344	1299.238037
1122.353516	1133.258301
1121.179688	1143.799438
1120.003906	1092.839722
1118.828125	732.208984
1117.654297	1068.917603
1116.478516	1122.610718
1115.302734	1088.151245
1114.126953	1012.725525
1112.951172	1183.253052
1111.775391	874.287292
1110.597656	899.387451
1109.421875	1153.864624
1108.244141	877.896362
1107.068359	919.373718
1105.890625	975.207825
1104.712891	996.237915
1103.535156	1105.272339
1102.357422	944.190613
1101.179688	809.770691
1100.001953	986.313049
1098.822266	964.460144
1097.644531	725.854736
1096.464844	689.763489
1095.287109	939.829224
1094.107422	668.708313
1092.927734	1010.688171
1091.748047	690.632813
1090.568359	791.477356
1089.388672	786.096436
1088.207031	952.276184
1087.027344	746.806702
1085.845703	888.454773
1084.666016	905.537781
1083.484375	608.404724
1082.302734	509.277435
1081.121094	579.496460
1079.939453	678.250000
1078.757813	628.115662
1077.576172	553.537537
1076.394531	662.448853
1075.210938	437.105316
1074.029297	560.269714
1072.845703	459.307495
1071.662109	437.828339
1070.480469	397.999634
1069.296875	368.395721
1068.113281	550.549194
1066.929688	520.931335
1065.744141	371.268555
1064.560547	317.272003
1063.375000	320.292297
1062.191406	323.281799
1061.005859	265.279602
1059.820313	290.672791
1058.636719	535.616150
1057.451172	266.181915
1056.265625	246.840195
1055.078125	176.724548
1053.892578	409.347076
1052.707031	28.373529
1051.519531	195.964737
1050.333984	-28.478426
1049.146484	9.107226
1047.958984	182.692947
1046.771484	92.343788
1045.583984	198.872864
1044.396484	278.980957
1043.208984	-8.142835
1042.019531	104.442413
1040.832031	180.448410
1039.642578	47.598202
1038.455078	259.402405
1037.265625	138.729507
1036.076172	89.020653
1034.886719	134.554764
1033.697266	76.740662
1032.507813	197.189285
1031.318359	7.721548
1030.126953	-33.844902
1028.937500	124.994110
1027.746094	184.608597
1026.556641	138.921799
1025.365234	56.842678
1024.173828	-71.754730
1022.982422	84.897751
1021.791016	67.549744
1020.599609	125.012398
1019.406250	117.772034
1018.214844	177.198593
1017.021484	-11.978102
1015.830078	124.208710
1014.636719	288.644958
1013.443359	55.058487
1012.250000	53.801449
1011.056641	139.359802
1009.863281	91.616951
1008.669922	-40.912823
1007.474609	-3.847077
1006.281250	-55.632534
1005.085938	-32.739319
1003.892578	0.185813
1002.697266	87.565155
1001.501953	49.864216
1000.306641	-12.039439
999.111328	123.616508
997.916016	224.940079
996.720703	86.395737
995.523438	109.094040
994.328125	55.182850
993.130859	-6.762909
991.933594	160.866180
990.736328	143.173264
989.541016	214.013107
988.341797	-91.535545
987.144531	65.833565
985.947266	102.396759
984.750000	20.227896
983.550781	-102.141098
982.353516	65.073395
981.154297	13.061526
979.955078	-87.210342
978.755859	-26.671293
977.556641	-72.695709
976.357422	44.025604
975.158203	40.136826
973.958984	4.081922
972.757813	38.326912
971.558594	-88.133652
970.357422	-192.471909
969.158203	-31.868872
967.957031	-61.985188
966.755859	-41.958385
965.554688	-60.088627
964.353516	-130.399704
963.150391	-144.536423
961.949219	-74.508163
960.748047	-4.537785
959.544922	-44.848396
958.341797	-53.113224
957.140625	-93.496460
955.937500	-65.755684
954.734375	-158.249481
953.531250	-10.409826
952.326172	-122.952423
951.123047	-323.612030
949.919922	-207.957809
948.714844	-218.445847
947.511719	-190.972641
946.306641	92.575256
945.101563	-142.119202
943.896484	-116.762398
942.691406	20.531069
941.486328	-28.204960
940.281250	-92.955193
939.074219	-237.647995
937.869141	-172.528290
936.662109	-111.443771
935.457031	-188.284576
934.250000	-151.268768
933.042969	-80.359161
931.835938	2.463473
930.628906	59.263260
929.421875	16.202957
928.212891	1866.969727
927.005859	-60.003170
925.796875	-123.076553
924.589844	-228.083496
923.380859	-119.691673
922.171875	22.513765
920.962891	-54.665722
919.753906	-70.075172
918.544922	89.847603
917.335938	-65.150635
916.125000	-108.557320
914.916016	-4.622212
913.705078	172.936874
912.494141	11.890959
911.285156	63.847313
910.074219	127.702866
908.863281	-27.427362
907.652344	20.405546
906.439453	267.138306
905.228516	-1.462850
904.017578	80.000816
902.804688	32.160065
901.591797	115.497643
900.380859	-9.977989
899.167969	176.580704
897.955078	140.474106
896.742188	-38.715065
895.527344	-116.569435
894.314453	39.880051
893.101563	142.609436
891.886719	-58.486649
890.673828	212.843643
889.458984	93.068451
888.244141	70.512344
887.029297	87.589127
885.814453	205.770233
884.599609	36.279011
883.384766	51.204105
882.167969	16.524351
880.953125	223.617142
879.736328	42.144447
878.519531	151.970657
877.304688	-1.822621
876.087891	95.974815
874.871094	-34.083843
873.654297	-39.401188
872.435547	-17.037205
871.218750	151.727890
870.001953	57.142796
868.783203	-11.723866
867.564453	40.064499
866.347656	-88.258232
865.128906	18.784939
863.910156	115.845772
862.691406	72.433815
861.472656	19.092806
860.251953	50.715862
859.033203	125.725014
857.812500	198.689804
856.593750	75.979965
855.373047	48.073788
854.152344	185.996918
852.931641	173.754059
851.710938	293.718048
850.490234	66.196350
849.269531	79.447548
848.046875	359.014130
846.826172	109.710876
845.603516	266.760559
844.382813	214.638489
843.160156	170.373672
841.937500	285.742828
840.714844	359.615906
839.492188	405.809143
838.267578	341.598572
837.044922	259.598541
835.822266	313.470001
834.597656	321.978882
833.373047	436.746399
832.150391	307.278076
830.925781	396.289154
829.701172	382.868073
828.476563	330.032227
827.250000	420.778412
826.025391	389.458313
824.800781	438.715271
823.574219	517.398315
822.347656	430.846405
821.123047	654.809265
819.896484	678.185791
818.669922	394.956940
817.443359	587.189087
816.216797	635.897644
814.988281	497.964172
813.761719	735.038452
812.533203	642.153748
811.306641	492.294495
810.078125	868.398804
808.849609	783.182861
807.621094	741.089111
806.392578	747.979736
805.164063	646.933777
803.935547	769.391602
802.705078	746.672974
801.476563	694.476929
800.246094	599.125549
799.017578	674.203125
797.787109	760.952209
796.556641	771.208435
795.326172	840.145569
794.095703	580.018494
792.863281	774.139221
791.632813	788.022156
790.402344	750.943298
789.169922	758.827698
787.937500	811.636719
786.705078	672.656555
785.474609	821.145142
784.242188	785.710693
783.007813	748.273743
781.775391	687.311462
780.542969	681.023865
779.308594	549.616211
778.076172	765.943420
776.841797	872.744141
775.607422	663.035767
774.375000	670.075317
773.140625	807.864502
771.904297	746.433228
770.669922	591.258911
769.435547	709.264099
768.199219	737.419739
766.964844	718.665771
765.728516	606.239868
764.494141	706.328552
763.257813	708.835938
762.021484	615.751465
760.785156	904.642517
759.546875	743.218567
758.310547	823.370422
757.074219	667.711853
755.835938	630.854431
754.599609	767.246155
753.361328	570.587402
752.123047	751.584229
750.884766	739.759155
749.646484	879.657288
748.408203	569.984680
747.167969	877.031860
745.929688	645.126343
744.689453	757.446350
743.451172	681.048645
742.210938	764.023926
740.970703	792.477905
739.730469	651.782654
738.490234	726.738220
737.250000	638.416016
736.009766	773.421692
734.767578	688.873535
733.527344	823.685547
732.285156	713.782776
731.044922	667.894043
729.802734	839.312073
728.560547	785.525513
727.318359	559.032471
726.076172	703.018799
724.832031	569.573730
723.589844	752.150940
722.345703	606.975647
721.103516	713.753967
719.859375	673.148987
718.615234	665.430603
717.371094	719.639893
716.126953	853.178528
714.882813	825.864075
713.638672	684.251465
712.394531	668.459045
711.148438	819.072083
709.902344	700.563110
708.658203	789.062622
707.412109	711.094910
706.166016	756.880920
704.919922	769.709167
703.673828	724.458618
702.427734	708.158020
701.179688	906.358459
699.933594	714.036438
698.685547	722.674805
697.437500	795.000244
696.191406	432.624634
694.943359	663.210938
693.695313	700.561340
692.447266	689.569641
691.197266	607.103699
689.949219	771.629944
688.699219	750.799500
687.451172	654.669983
686.201172	471.713501
684.951172	516.330688
683.701172	674.638062
682.451172	659.317627
681.201172	672.854980
679.951172	782.688965
678.701172	574.484985
677.449219	603.264099
676.199219	435.493866
674.947266	458.390808
673.695313	718.065430
672.443359	607.944885
671.191406	567.101685
669.939453	666.707214
668.687500	514.145569
667.433594	527.037659
666.181641	614.884888
664.927734	685.336914
663.675781	759.553528
662.421875	627.974182
661.167969	557.895752
659.914063	831.807983
658.660156	550.235657
657.406250	681.771973
656.150391	640.328125
654.896484	696.793762
653.640625	797.352173
652.384766	732.710144
651.130859	810.086548
649.875000	764.551819
648.619141	680.603149
647.361328	646.515442
646.105469	769.684326
644.849609	697.132019
643.591797	582.369446
642.335938	573.043762
641.078125	697.855347
639.820313	757.412170
638.562500	882.050598
637.304688	466.311157
636.046875	516.154297
634.789063	722.981873
633.531250	594.581421
632.271484	558.078674
631.011719	557.913147
629.753906	638.087280
628.494141	559.360535
627.234375	430.871948
625.974609	541.497986
624.714844	539.200134
623.455078	536.859680
622.193359	477.118408
620.933594	499.554626
619.671875	611.769653
618.410156	546.188171
617.148438	600.956238
615.888672	485.653137
614.625000	479.213928
613.363281	453.642151
612.101563	225.659302
610.839844	473.041351
609.576172	277.502655
608.314453	263.282043
607.050781	325.344818
605.787109	187.051880
604.523438	235.684067
603.259766	249.939194
601.996094	424.309998
600.730469	474.675598
599.466797	347.739349
598.203125	157.929291
596.937500	265.374359
595.671875	222.260117
594.406250	179.128159
593.140625	155.023972
591.875000	155.649323
590.609375	188.607330
589.343750	309.075348
588.076172	178.279678
586.810547	201.617065
585.542969	93.657700
584.275391	-16.193670
583.009766	254.299881
581.742188	30.328447
580.472656	-16.800858
579.205078	-71.538467
577.937500	-16.061546
576.667969	41.268990
575.400391	218.239258
574.130859	-17.032375
572.861328	256.689270
571.593750	-62.088032
570.324219	76.722656
569.052734	114.867950
567.783203	73.281822
566.513672	92.405960
565.242188	28.034479
563.972656	-21.155333
562.701172	32.055962
561.429688	-39.905746
560.160156	-47.399639
558.888672	15.218394
557.615234	7.681357
556.343750	-189.333191
555.072266	70.252953
553.798828	-102.110008
552.527344	22.892326
551.253906	-54.755333
549.980469	100.460014
548.707031	39.840775
547.433594	17.081930
546.160156	-54.871529
544.886719	-5.736729
543.611328	32.023365
542.337891	-19.114538
541.062500	18.622190
539.789063	20.426109
538.513672	126.176270
537.238281	8.894580
535.962891	-17.657566
534.687500	-95.208023
533.410156	220.127869
532.134766	-51.949467
530.857422	0.818875
529.582031	-152.194824
528.304688	-57.901546
527.027344	-69.319435
525.750000	47.571720
524.472656	73.875107
523.195313	-250.649826
521.917969	-118.690880
520.638672	-54.654369
519.361328	-162.179810
518.082031	-150.922241
516.802734	-32.244553
515.523438	-128.395111
514.244141	-201.898651
512.964844	-81.366806
511.685547	-24.894638
510.406250	-39.980511
509.125000	-200.009109
507.843750	-58.818024
506.564453	-77.619942
505.283203	-2.328390
504.001953	-54.972424
502.720703	-73.728157
501.439453	-220.340042
500.158203	-233.388519
498.875000	-191.903564
497.593750	-18.842728
496.310547	-204.763733
495.027344	174.951630
493.746094	-12.776757
492.462891	62.533581
491.179688	-4.885950
489.894531	107.985626
488.611328	83.801674
487.328125	187.280380
486.042969	50.534615
484.759766	63.966549
483.474609	163.709518
482.189453	149.027893
480.904297	44.362717
479.619141	132.881607
478.333984	221.396698
477.046875	133.719376
475.761719	111.691650
474.474609	55.972805
473.189453	137.058014
471.902344	309.920197
470.615234	136.304779
469.328125	365.338318
468.041016	45.817333
466.753906	265.491425
465.464844	230.611801
464.177734	347.335052
462.888672	419.152374
461.599609	440.477722
460.312500	289.786407
459.023438	326.155884
457.734375	265.338837
456.443359	230.745041
455.154297	368.129883
453.865234	215.896255
452.574219	284.190460
451.285156	343.162048
449.994141	387.211456
448.703125	364.069519
447.412109	234.568756
446.121094	398.191162
444.830078	345.324921
443.537109	367.151886
442.246094	180.078552
440.953125	267.294312
439.662109	106.499283
438.369141	277.689789
437.076172	158.051056
435.783203	267.755432
434.490234	261.927429
433.197266	302.728668
431.902344	192.668701
430.609375	64.069679
429.314453	270.765778
428.019531	289.386078
426.726563	69.764313
425.431641	181.574966
424.136719	371.555237
422.839844	340.106781
421.544922	295.698090
420.250000	402.013000
418.953125	316.801025
417.658203	374.836823
416.361328	-35.557617
415.064453	390.639465
413.767578	45.533875
412.470703	276.584991
411.173828	306.979706
409.875000	144.254166
408.578125	18.780512
407.279297	184.910110
405.980469	104.138725
404.683594	155.231262
403.384766	178.526886
402.085938	135.075775
400.787109	225.263947
399.486328	244.998306
398.187500	249.947403
396.886719	106.625069
395.587891	191.425034
394.287109	283.669098
392.986328	181.361786
391.685547	106.941826
390.384766	158.575439
389.083984	193.582199
387.783203	117.525757
386.480469	67.479851
385.179688	235.950012
383.876953	100.882423
382.574219	197.240799
381.271484	45.698151
379.968750	145.853256
378.666016	31.486498
377.363281	17.080441
376.058594	-32.385281
374.755859	195.513260
373.451172	-90.420921
372.148438	146.771820
370.843750	-107.519196
369.539063	201.766373
368.234375	119.446945
366.929688	-128.978439
365.623047	-63.375175
364.318359	114.869514
363.011719	-9.572788
361.707031	-97.005707
360.400391	46.287605
359.093750	-64.976089
357.787109	63.631863
356.480469	122.182686
355.171875	112.561623
353.865234	-149.543976
352.558594	-9.703064
351.250000	-103.874908
349.941406	-28.447004
348.632813	104.122498
347.324219	-10.092347
346.015625	-74.486237
344.707031	14.020714
343.398438	179.871674
342.087891	-22.367664
340.779297	53.385574
339.468750	-8.809189
338.158203	274.909607
336.849609	23.375780
335.539063	23.922710
334.226563	-17.751404
332.916016	91.378494
331.605469	0.197789
330.292969	96.548233
328.982422	93.705307
327.669922	153.385147
326.357422	-40.352386
325.044922	2.919042
323.732422	38.888470
322.419922	-4.030485
321.107422	13.689069
319.792969	-40.100796
318.480469	95.151260
317.166016	32.306152
315.851563	83.248116
314.537109	29.705135
313.222656	-170.437607
311.908203	45.652317
310.593750	19.795618
309.277344	-59.132683
307.962891	-17.069939
306.646484	-231.413895
305.332031	63.508102
304.015625	-2.351810
302.699219	-99.263664
301.382813	-152.160309
300.066406	-100.670876
298.748047	27.710443
297.431641	-111.027748
296.113281	-41.133774
294.796875	-0.488959
293.478516	-124.378517
292.160156	-69.012627
290.841797	-6.312070
289.523438	-100.766014
288.203125	-19.718386
286.884766	-152.422943
285.564453	-80.448975
284.246094	-147.272171
282.925781	-177.505569
281.605469	-5.042619
280.285156	149.141068
278.964844	-114.627899
277.644531	45.061996
276.322266	-99.937103
275.001953	-66.104156
273.679688	131.893616
272.359375	-178.896591
271.037109	8.168178
269.714844	-121.971619
268.392578	48.666698
267.070313	129.983261
265.746094	114.746841
264.423828	35.774574
263.099609	51.561268
261.777344	111.052826
260.453125	37.650349
259.128906	-123.080162
257.804688	-32.593716
256.480469	-62.217384
255.156250	-91.819290
253.830078	42.314117
252.505859	-150.951248
251.179688	-98.661491
249.855469	-0.944435
248.529297	-125.001450
247.203125	69.022163
245.876953	-56.816578
244.548828	-193.501526
243.222656	-226.616211
241.896484	-181.632339
240.568359	-225.631485
239.240234	-75.371880
237.914063	-17.753323
236.585938	143.286179
235.257813	-33.232357
233.927734	-13.766216
232.599609	-85.022934
231.271484	70.414680
229.941406	-80.639366
228.613281	-46.759682
227.283203	-172.409225
225.953125	29.971611
224.623047	32.944824
223.292969	-20.271364
221.960938	15.261162
220.630859	188.369507
219.300781	107.894623
217.968750	-3.355979
216.636719	-29.537891
215.304688	259.129456
213.972656	28.368004
212.640625	123.266380
211.308594	-13.431539
209.976563	-56.096172
208.642578	-89.750290
207.310547	10.316607
205.976563	97.647034
204.642578	101.758652
203.308594	15.466942
201.974609	-29.311060
200.640625	61.320648
199.306641	0.159901
197.970703	31.036938
196.636719	50.989262
195.300781	-44.648468
193.964844	244.038467
192.630859	92.297737
191.294922	99.277672
189.957031	-2.043330
188.621094	91.328621
187.285156	34.927040
185.947266	19.915710
184.611328	-31.242949
183.273438	25.641020
181.935547	57.176121
180.597656	74.179825
179.259766	145.098495
177.921875	53.811558
176.582031	203.700714
175.244141	97.797318
173.904297	153.793228
172.566406	153.854752
171.226563	63.834080
169.886719	144.601227
168.546875	47.151165
167.205078	142.007111
165.865234	146.789291
164.525391	241.302856
163.183594	137.940399
161.841797	273.453339
160.501953	76.386917
159.160156	-7.599155
157.818359	12.448290
156.476563	53.870640
155.132813	34.069668
153.791016	37.436058
152.447266	78.314972
151.105469	-186.047455
149.761719	-50.421402
148.417969	-8.305822
147.074219	-126.011375
145.730469	7.166392
144.386719	-75.037338
143.041016	102.495712
141.697266	41.402584
140.351563	-30.630613
139.005859	-38.356926
137.660156	27.141790
136.314453	-88.484894
134.968750	-62.839893
133.623047	52.080318
132.277344	3.841730
130.929688	-196.739365
129.583984	-30.677624
128.236328	31.314354
126.888672	-16.074844
125.541016	158.056076
124.193359	-32.894043
122.845703	1.215287
121.496094	-36.455727
120.148438	0.679860
118.798828	-89.340576
117.451172	-59.908058
116.101563	4.945766
114.751953	-93.021469
113.402344	-66.260765
112.052734	133.358414
110.701172	114.840378
109.351563	224.521133
108.000000	23.383293
106.650391	-101.278885
105.298828	-137.045639
103.947266	-83.959351
